File: flexural/ES100_Trevor_Flexural_Data_15_1.csv
Specimen text inputs : Specimen text input  1,,""

Results Table 1
,Specimen text input  1
"15","bf_f1"

Results Table 2

Time,Displacement,Force
(s),(mm),(kN)
"0.0000","0.5640","0.0203"
"0.3600","0.5929","0.0269"
"0.7200","0.6228","0.0324"
"1.0800","0.6529","0.0383"
"1.4400","0.6828","0.0445"
"1.8000","0.7129","0.0502"
"2.1600","0.7429","0.0564"
"2.5200","0.7729","0.0628"
"2.8800","0.8027","0.0688"
"3.2400","0.8329","0.0750"
"3.6000","0.8628","0.0815"
"3.9600","0.8929","0.0878"
"4.3200","0.9228","0.0943"
"4.6800","0.9529","0.1006"
"5.0400","0.9829","0.1073"
"5.4000","1.0129","0.1136"
"5.7600","1.0428","0.1198"
"6.1200","1.0729","0.1264"
"6.4800","1.1028","0.1327"
"6.8400","1.1328","0.1391"
"7.2000","1.1628","0.1455"
"7.5600","1.1928","0.1523"
"7.9200","1.2228","0.1584"
"8.2800","1.2528","0.1649"
"8.6400","1.2828","0.1714"
"9.0000","1.3128","0.1777"
"9.3600","1.3429","0.1846"
"9.7200","1.3727","0.1913"
"10.0800","1.4029","0.1973"
"10.4400","1.4328","0.2041"
"10.8000","1.4629","0.2108"
"11.1600","1.4929","0.2173"
"11.5200","1.5230","0.2237"
"11.8800","1.5527","0.2301"
"12.2400","1.5829","0.2363"
"12.6000","1.6127","0.2429"
"12.9600","1.6429","0.2496"
"13.3200","1.6729","0.2560"
"13.6800","1.7028","0.2626"
"14.0400","1.7329","0.2690"
"14.4000","1.7629","0.2758"
"14.7600","1.7928","0.2823"
"15.1200","1.8229","0.2891"
"15.4800","1.8528","0.2956"
"15.8400","1.8828","0.3021"
"16.2000","1.9128","0.3086"
"16.5600","1.9428","0.3150"
"16.9200","1.9729","0.3215"
"17.2800","2.0028","0.3280"
"17.6400","2.0329","0.3341"
"18.0000","2.0628","0.3404"
"18.3600","2.0929","0.3472"
"18.7200","2.1228","0.3531"
"19.0800","2.1529","0.3596"
"19.4400","2.1828","0.3657"
"19.8000","2.2129","0.3719"
"20.1600","2.2429","0.3785"
"20.5200","2.2729","0.3845"
"20.8800","2.3028","0.3906"
"21.2400","2.3330","0.3972"
"21.6000","2.3628","0.4032"
"21.9600","2.3929","0.4096"
"22.3200","2.4229","0.4161"
"22.6800","2.4528","0.4222"
"23.0400","2.4829","0.4287"
"23.4000","2.5129","0.4346"
"23.7600","2.5428","0.4403"
"24.1200","2.5729","0.4468"
"24.4800","2.6028","0.4526"
"24.8400","2.6328","0.4587"
"25.2000","2.6628","0.4646"
"25.5600","2.6928","0.4710"
"25.9200","2.7227","0.4766"
"26.2800","2.7529","0.4829"
"26.6400","2.7828","0.4887"
"27.0000","2.8128","0.4951"
"27.3600","2.8429","0.5012"
"27.7200","2.8728","0.5072"
"28.0800","2.9029","0.5133"
"28.4400","2.9329","0.5193"
"28.8000","2.9629","0.5253"
"29.1600","2.9929","0.5312"
"29.5200","3.0229","0.5372"
"29.8800","3.0527","0.5429"
"30.2400","3.0830","0.5485"
"30.6000","3.1128","0.5543"
"30.9600","3.1429","0.5601"
"31.3200","3.1729","0.5656"
"31.6800","3.2028","0.5718"
"32.0400","3.2329","0.5770"
"32.4000","3.2629","0.5831"
"32.7600","3.2928","0.5885"
"33.1200","3.3229","0.5941"
"33.4800","3.3528","0.6000"
"33.8400","3.3828","0.6058"
"34.2000","3.4128","0.6116"
"34.5600","3.4427","0.6175"
"34.9200","3.4728","0.6232"
"35.2800","3.5028","0.6288"
"35.6400","3.5328","0.6342"
"36.0000","3.5628","0.6399"
"36.3600","3.5929","0.6456"
"36.7200","3.6227","0.6510"
"37.0800","3.6528","0.6563"
"37.4400","3.6829","0.6620"
"37.8000","3.7129","0.6673"
"38.1600","3.7429","0.6729"
"38.5200","3.7729","0.6784"
"38.8800","3.8028","0.6835"
"39.2400","3.8329","0.6892"
"39.6000","3.8628","0.6946"
"39.9600","3.8929","0.7004"
"40.3200","3.9228","0.7056"
"40.6800","3.9528","0.7114"
"41.0400","3.9829","0.7165"
"41.4000","4.0129","0.7219"
"41.7600","4.0428","0.7275"
"42.1200","4.0729","0.7324"
"42.4800","4.1028","0.7381"
"42.8400","4.1328","0.7435"
"43.2000","4.1628","0.7487"
"43.5600","4.1927","0.7538"
"43.9200","4.2228","0.7593"
"44.2800","4.2529","0.7646"
"44.6400","4.2828","0.7695"
"45.0000","4.3128","0.7747"
"45.3600","4.3429","0.7800"
"45.7200","4.3728","0.7851"
"46.0800","4.4029","0.7904"
"46.4400","4.4329","0.7958"
"46.8000","4.4629","0.8009"
"47.1600","4.4929","0.8064"
"47.5200","4.5229","0.8114"
"47.8800","4.5528","0.8167"
"48.2400","4.5829","0.8221"
"48.6000","4.6128","0.8271"
"48.9600","4.6428","0.8323"
"49.3200","4.6729","0.8377"
"49.6800","4.7029","0.8429"
"50.0400","4.7329","0.8480"
"50.4000","4.7629","0.8532"
"50.7600","4.7928","0.8585"
"51.1200","4.8229","0.8635"
"51.4800","4.8528","0.8691"
"51.8400","4.8828","0.8740"
"52.2000","4.9128","0.8791"
"52.5600","4.9427","0.8845"
"52.9200","4.9729","0.8897"
"53.2800","5.0028","0.8946"
"53.6400","5.0328","0.8996"
"54.0000","5.0628","0.9046"
"54.3600","5.0929","0.9102"
"54.7200","5.1228","0.9158"
"55.0800","5.1529","0.9210"
"55.4400","5.1828","0.9260"
"55.8000","5.2129","0.9314"
"56.1600","5.2429","0.9363"
"56.5200","5.2729","0.9415"
"56.8800","5.3028","0.9471"
"57.2400","5.3330","0.9515"
"57.6000","5.3628","0.9571"
"57.9600","5.3929","0.9623"
"58.3200","5.4229","0.9675"
"58.6800","5.4529","0.9723"
"59.0400","5.4829","0.9770"
"59.4000","5.5129","0.9821"
"59.7600","5.5428","0.9757"
"60.1200","5.5729","0.9797"
"60.4800","5.6028","0.9848"
"60.8400","5.6328","0.9900"
"61.2000","5.6627","0.9947"
"61.5600","5.6928","0.9999"
"61.9200","5.7229","1.0050"
"62.2800","5.7528","1.0099"
"62.6400","5.7828","1.0150"
"63.0000","5.8128","1.0199"
"63.3600","5.8428","1.0245"
"63.7200","5.8728","1.0140"
"64.0800","5.9029","1.0127"
"64.4400","5.9328","1.0135"
"64.8000","5.9629","1.0172"
"65.1600","5.9929","1.0215"
"65.5200","6.0229","1.0257"
"65.8800","6.0527","1.0306"
"66.2400","6.0830","1.0349"
"66.6000","6.1128","1.0399"
"66.9600","6.1429","1.0441"
"67.3200","6.1729","1.0335"
"67.6800","6.2029","1.0150"
"68.0400","6.2329","1.0172"
"68.4000","6.2629","1.0210"
"68.7600","6.2928","1.0251"
"69.1200","6.3229","1.0292"
"69.4800","6.3529","1.0342"
"69.8400","6.3828","1.0386"
"70.2000","6.4129","1.0432"
"70.5600","6.4428","1.0475"
"70.9200","6.4728","1.0522"
"71.2800","6.5028","1.0565"
"71.6400","6.5329","1.0614"
"72.0000","6.5628","1.0654"
"72.3600","6.5929","1.0697"
"72.7200","6.6228","1.0738"
"73.0800","6.6529","1.0757"
"73.4400","6.6829","1.0784"
"73.8000","6.7129","1.0823"
"74.1600","6.7429","1.0861"
"74.5200","6.7729","1.0858"
"74.8800","6.8028","1.0877"
"75.2400","6.8329","1.0911"
"75.6000","6.8628","1.0942"
"75.9600","6.8929","1.0981"
"76.3200","6.9229","1.1015"
"76.6800","6.9528","1.1055"
"77.0400","6.9829","1.1009"
"77.4000","7.0129","1.1044"
"77.7600","7.0428","1.1078"
"78.1200","7.0729","1.1115"
"78.4800","7.1028","1.1154"
"78.8400","7.1328","1.1193"
"79.2000","7.1628","1.1227"
"79.5600","7.1927","1.1235"
"79.9200","7.2228","1.1252"
"80.2800","7.2528","1.1277"
"80.6400","7.2828","1.1308"
"81.0000","7.3127","1.1338"
"81.3600","7.3428","1.1240"
"81.7200","7.3728","1.1149"
"82.0800","7.4028","1.1150"
"82.4400","7.4328","1.1169"
"82.8000","7.4629","1.1190"
"83.1600","7.4929","1.1220"
"83.5200","7.5229","1.1246"
"83.8800","7.5528","1.1276"
"84.2400","7.5829","1.1306"
"84.6000","7.6128","1.1337"
"84.9600","7.6429","1.1370"
"85.3200","7.6729","1.1403"
"85.6800","7.7028","1.1436"
"86.0400","7.7329","1.1455"
"86.4000","7.7629","1.1486"
"86.7600","7.7928","1.1518"
"87.1200","7.8229","1.1451"
"87.4800","7.8528","1.1427"
"87.8400","7.8828","1.1382"
"88.2000","7.9128","1.1308"
"88.5600","7.9427","1.1299"
"88.9200","7.9728","1.1282"
"89.2800","8.0029","1.1238"
"89.6400","8.0328","1.1227"
"90.0000","8.0627","1.1216"
"90.3600","8.0929","1.1212"
"90.7200","8.1228","1.1186"
"91.0800","8.1529","1.1191"
"91.4400","8.1829","1.1206"
"91.8000","8.2129","1.1222"
"92.1600","8.2429","1.1243"
"92.5200","8.2729","1.1262"
"92.8800","8.3027","1.1275"
"93.2400","8.3330","1.1298"
"93.6000","8.3628","1.1323"
"93.9600","8.3929","1.1350"
"94.3200","8.4229","1.1380"
"94.6800","8.4529","1.1360"
"95.0400","8.4829","1.1364"
"95.4000","8.5129","1.1376"
"95.7600","8.5428","1.1279"
"96.1200","8.5729","1.1234"
"96.4800","8.6028","1.1219"
"96.8400","8.6328","1.1219"
"97.2000","8.6629","1.1221"
"97.5600","8.6928","1.1239"
"97.9200","8.7229","1.1248"
"98.2800","8.7528","1.1266"
"98.6400","8.7828","1.1283"
"99.0000","8.8128","1.1298"
"99.3600","8.8429","1.1229"
"99.7200","8.8727","1.1221"
"100.0800","8.9029","1.1226"
"100.4400","8.9329","1.1240"
"100.8000","8.9629","1.1246"
"101.1600","8.9929","1.1253"
"101.5200","9.0229","1.1198"
"101.8800","9.0528","1.1091"
"102.2400","9.0829","1.1036"
"102.6000","9.1128","1.1004"
"102.9600","9.1428","1.0987"
"103.3200","9.1729","1.0974"
"103.6800","9.2029","1.0972"
"104.0400","9.2329","1.0975"
"104.4000","9.2629","1.0977"
"104.7600","9.2928","1.0912"
"105.1200","9.3229","1.0881"
"105.4800","9.3528","1.0858"
"105.8400","9.3828","1.0821"
"106.2000","9.4128","1.0655"
"106.4660","9.4352","0.6049"