File: flexural/ES100_Trevor_Flexural_Data_12_1.csv
Specimen text inputs : Specimen text input  1,,""

Results Table 1
,Specimen text input  1
"12","h45_f2"

Results Table 2

Time,Displacement,Force
(s),(mm),(kN)
"0.0000","0.7654","0.0202"
"0.3600","0.7941","0.0228"
"0.7200","0.8241","0.0251"
"1.0800","0.8541","0.0275"
"1.4400","0.8841","0.0296"
"1.8000","0.9142","0.0322"
"2.1600","0.9441","0.0344"
"2.5200","0.9742","0.0370"
"2.8800","1.0042","0.0395"
"3.2400","1.0343","0.0420"
"3.6000","1.0641","0.0444"
"3.9600","1.0942","0.0468"
"4.3200","1.1241","0.0489"
"4.6800","1.1543","0.0517"
"5.0400","1.1842","0.0536"
"5.4000","1.2143","0.0561"
"5.7600","1.2442","0.0589"
"6.1200","1.2742","0.0618"
"6.4800","1.3041","0.0641"
"6.8400","1.3343","0.0663"
"7.2000","1.3641","0.0689"
"7.5600","1.3942","0.0715"
"7.9200","1.4242","0.0737"
"8.2800","1.4541","0.0765"
"8.6400","1.4843","0.0786"
"9.0000","1.5141","0.0816"
"9.3600","1.5441","0.0836"
"9.7200","1.5741","0.0859"
"10.0800","1.6041","0.0887"
"10.4400","1.6341","0.0910"
"10.8000","1.6642","0.0933"
"11.1600","1.6941","0.0957"
"11.5200","1.7243","0.0982"
"11.8800","1.7542","0.1006"
"12.2400","1.7842","0.1029"
"12.6000","1.8142","0.1057"
"12.9600","1.8442","0.1076"
"13.3200","1.8741","0.1103"
"13.6800","1.9042","0.1129"
"14.0400","1.9341","0.1149"
"14.4000","1.9642","0.1173"
"14.7600","1.9943","0.1198"
"15.1200","2.0241","0.1219"
"15.4800","2.0541","0.1244"
"15.8400","2.0843","0.1266"
"16.2000","2.1141","0.1287"
"16.5600","2.1442","0.1306"
"16.9200","2.1741","0.1334"
"17.2800","2.2041","0.1356"
"17.6400","2.2342","0.1377"
"18.0000","2.2641","0.1399"
"18.3600","2.2942","0.1420"
"18.7200","2.3241","0.1442"
"19.0800","2.3541","0.1460"
"19.4400","2.3841","0.1486"
"19.8000","2.4142","0.1504"
"20.1600","2.4441","0.1527"
"20.5200","2.4742","0.1549"
"20.8800","2.5042","0.1570"
"21.2400","2.5343","0.1591"
"21.6000","2.5642","0.1611"
"21.9600","2.5942","0.1632"
"22.3200","2.6241","0.1650"
"22.6800","2.6543","0.1673"
"23.0400","2.6841","0.1695"
"23.4000","2.7142","0.1716"
"23.7600","2.7443","0.1730"
"24.1200","2.7742","0.1756"
"24.4800","2.8041","0.1773"
"24.8400","2.8343","0.1794"
"25.2000","2.8641","0.1812"
"25.5600","2.8942","0.1830"
"25.9200","2.9242","0.1854"
"26.2800","2.9541","0.1871"
"26.6400","2.9842","0.1895"
"27.0000","3.0141","0.1911"
"27.3600","3.0441","0.1927"
"27.7200","3.0741","0.1945"
"28.0800","3.1041","0.1965"
"28.4400","3.1341","0.1986"
"28.8000","3.1642","0.2003"
"29.1600","3.1941","0.2019"
"29.5200","3.2243","0.2039"
"29.8800","3.2542","0.2056"
"30.2400","3.2843","0.2069"
"30.6000","3.3142","0.2091"
"30.9600","3.3443","0.2104"
"31.3200","3.3741","0.2125"
"31.6800","3.4042","0.2144"
"32.0400","3.4341","0.2155"
"32.4000","3.4642","0.2174"
"32.7600","3.4943","0.2189"
"33.1200","3.5243","0.2209"
"33.4800","3.5541","0.2223"
"33.8400","3.5843","0.2238"
"34.2000","3.6141","0.2255"
"34.5600","3.6442","0.2265"
"34.9200","3.6742","0.2283"
"35.2800","3.7041","0.2299"
"35.6400","3.7342","0.2319"
"36.0000","3.7641","0.2333"
"36.3600","3.7941","0.2345"
"36.7200","3.8241","0.2361"
"37.0800","3.8541","0.2374"
"37.4400","3.8842","0.2388"
"37.8000","3.9142","0.2401"
"38.1600","3.9441","0.2419"
"38.5200","3.9743","0.2432"
"38.8800","4.0042","0.2447"
"39.2400","4.0343","0.2463"
"39.6000","4.0642","0.2477"
"39.9600","4.0942","0.2489"
"40.3200","4.1241","0.2501"
"40.6800","4.1543","0.2515"
"41.0400","4.1841","0.2525"
"41.4000","4.2142","0.2538"
"41.7600","4.2443","0.2557"
"42.1200","4.2742","0.2567"
"42.4800","4.3042","0.2581"
"42.8400","4.3342","0.2590"
"43.2000","4.3641","0.2605"
"43.5600","4.3941","0.2617"
"43.9200","4.4242","0.2633"
"44.2800","4.4541","0.2640"
"44.6400","4.4842","0.2652"
"45.0000","4.5141","0.2667"
"45.3600","4.5441","0.2677"
"45.7200","4.5742","0.2691"
"46.0800","4.6041","0.2701"
"46.4400","4.6340","0.2714"
"46.8000","4.6642","0.2727"
"47.1600","4.6941","0.2738"
"47.5200","4.7243","0.2750"
"47.8800","4.7543","0.2761"
"48.2400","4.7842","0.2775"
"48.6000","4.8142","0.2784"
"48.9600","4.8443","0.2798"
"49.3200","4.8741","0.2807"
"49.6800","4.9042","0.2817"
"50.0400","4.9342","0.2829"
"50.4000","4.9642","0.2840"
"50.7600","4.9943","0.2846"
"51.1200","5.0242","0.2858"
"51.4800","5.0541","0.2870"
"51.8400","5.0842","0.2877"
"52.2000","5.1141","0.2888"
"52.5600","5.1442","0.2896"
"52.9200","5.1741","0.2905"
"53.2800","5.2041","0.2918"
"53.6400","5.2343","0.2922"
"54.0000","5.2641","0.2934"
"54.3600","5.2941","0.2940"
"54.7200","5.3242","0.2952"
"55.0800","5.3541","0.2963"
"55.4400","5.3841","0.2973"
"55.8000","5.4142","0.2978"
"56.1600","5.4441","0.2989"
"56.5200","5.4743","0.3000"
"56.8800","5.5043","0.3010"
"57.2400","5.5342","0.3017"
"57.6000","5.5642","0.3025"
"57.9600","5.5943","0.3033"
"58.3200","5.6241","0.3045"
"58.6800","5.6543","0.3055"
"59.0400","5.6842","0.3061"
"59.4000","5.7143","0.3074"
"59.7600","5.7443","0.3083"
"60.1200","5.7742","0.3092"
"60.4800","5.8042","0.3101"
"60.8400","5.8342","0.3111"
"61.2000","5.8641","0.3116"
"61.5600","5.8941","0.3126"
"61.9200","5.9242","0.3135"
"62.2800","5.9541","0.3143"
"62.6400","5.9842","0.3157"
"63.0000","6.0141","0.3165"
"63.3600","6.0441","0.3169"
"63.7200","6.0741","0.3178"
"64.0800","6.1041","0.3183"
"64.4400","6.1341","0.3191"
"64.8000","6.1642","0.3204"
"65.1600","6.1941","0.3212"
"65.5200","6.2242","0.3219"
"65.8800","6.2543","0.3219"
"66.2400","6.2842","0.3230"
"66.6000","6.3142","0.3237"
"66.9600","6.3443","0.3243"
"67.3200","6.3741","0.3256"
"67.6800","6.4043","0.3258"
"68.0400","6.4341","0.3261"
"68.4000","6.4642","0.3272"
"68.7600","6.4943","0.3273"
"69.1200","6.5242","0.3280"
"69.4800","6.5541","0.3288"
"69.8400","6.5843","0.3289"
"70.2000","6.6141","0.3292"
"70.5600","6.6442","0.3297"
"70.9200","6.6742","0.3307"
"71.2800","6.7041","0.3315"
"71.6400","6.7342","0.3322"
"72.0000","6.7641","0.3328"
"72.3600","6.7941","0.3331"
"72.7200","6.8242","0.3337"
"73.0800","6.8541","0.3342"
"73.4400","6.8841","0.3346"
"73.8000","6.9142","0.3355"
"74.1600","6.9441","0.3360"
"74.5200","6.9742","0.3364"
"74.8800","7.0043","0.3372"
"75.2400","7.0342","0.3377"
"75.6000","7.0642","0.3384"
"75.9600","7.0943","0.3388"
"76.3200","7.1241","0.3397"
"76.6800","7.1543","0.3404"
"77.0400","7.1841","0.3404"
"77.4000","7.2142","0.3413"
"77.7600","7.2443","0.3415"
"78.1200","7.2742","0.3422"
"78.4800","7.3042","0.3432"
"78.8400","7.3342","0.3433"
"79.2000","7.3641","0.3437"
"79.5600","7.3942","0.3447"
"79.9200","7.4241","0.3450"
"80.2800","7.4541","0.3458"
"80.6400","7.4843","0.3463"
"81.0000","7.5141","0.3467"
"81.3600","7.5441","0.3472"
"81.7200","7.5741","0.3480"
"82.0800","7.6041","0.3483"
"82.4400","7.6341","0.3489"
"82.8000","7.6642","0.3493"
"83.1600","7.6941","0.3493"
"83.5200","7.7243","0.3493"
"83.8800","7.7543","0.3497"
"84.2400","7.7843","0.3503"
"84.6000","7.8141","0.3509"
"84.9600","7.8443","0.3510"
"85.3200","7.8741","0.3515"
"85.6800","7.9043","0.3522"
"86.0400","7.9342","0.3523"
"86.4000","7.9642","0.3535"
"86.7600","7.9943","0.3540"
"87.1200","8.0242","0.3543"
"87.4800","8.0542","0.3545"
"87.8400","8.0843","0.3550"
"88.2000","8.1141","0.3551"
"88.5600","8.1442","0.3559"
"88.9200","8.1742","0.3562"
"89.2800","8.2041","0.3563"
"89.6400","8.2342","0.3568"
"90.0000","8.2641","0.3573"
"90.3600","8.2941","0.3577"
"90.7200","8.3242","0.3581"
"91.0800","8.3541","0.3585"
"91.4400","8.3841","0.3588"
"91.8000","8.4142","0.3592"
"92.1600","8.4441","0.3595"
"92.5200","8.4742","0.3600"
"92.8800","8.5042","0.3603"
"93.2400","8.5343","0.3603"
"93.6000","8.5642","0.3609"
"93.9600","8.5943","0.3610"
"94.3200","8.6241","0.3615"
"94.6800","8.6543","0.3614"
"95.0400","8.6841","0.3618"
"95.4000","8.7143","0.3618"
"95.7600","8.7442","0.3619"
"96.1200","8.7742","0.3619"
"96.4800","8.8042","0.3620"
"96.8400","8.8342","0.3615"
"97.2000","8.8641","0.3611"
"97.5600","8.8942","0.3616"
"97.9200","8.9242","0.3612"
"98.2800","8.9541","0.3604"
"98.6400","8.9843","0.3600"
"99.0000","9.0141","0.3596"
"99.3600","9.0441","0.3588"
"99.7200","9.0741","0.3584"
"100.0800","9.1041","0.3518"
"100.4400","9.1341","0.0015"
"100.8000","9.1642","0.0014"
"101.1600","9.1941","0.0019"
"101.5200","9.2242","0.0018"
"101.8800","9.2543","0.0020"
"102.2400","9.2842","0.0019"
"102.6000","9.3142","0.0023"
"102.9600","9.3442","0.0021"
"103.3200","9.3741","0.0025"
"103.6800","9.4043","0.0025"
"104.0400","9.4342","0.0024"
"104.4000","9.4642","0.0026"
"104.4800","9.4708","0.0022"