File: flexural/ES100_Trevor_Flexural_Data_10_1.csv
Specimen text inputs : Specimen text input  1,,""

Results Table 1
,Specimen text input  1
"10","h0_f2"

Results Table 2

Time,Displacement,Force
(s),(mm),(kN)
"0.0000","0.4313","0.0202"
"0.2600","0.4520","0.0224"
"0.5200","0.4735","0.0247"
"0.7800","0.4953","0.0266"
"1.0400","0.5168","0.0291"
"1.3000","0.5384","0.0307"
"1.5600","0.5602","0.0328"
"1.8200","0.5819","0.0349"
"2.0800","0.6034","0.0367"
"2.3400","0.6251","0.0391"
"2.6000","0.6468","0.0410"
"2.8600","0.6684","0.0429"
"3.1200","0.6903","0.0451"
"3.3800","0.7119","0.0472"
"3.6400","0.7336","0.0492"
"3.9000","0.7552","0.0511"
"4.1600","0.7768","0.0530"
"4.4200","0.7985","0.0555"
"4.6800","0.8203","0.0572"
"4.9400","0.8418","0.0588"
"5.2000","0.8634","0.0612"
"5.4600","0.8851","0.0633"
"5.7200","0.9067","0.0659"
"5.9800","0.9285","0.0671"
"6.2400","0.9503","0.0696"
"6.5000","0.9718","0.0716"
"6.7600","0.9936","0.0738"
"7.0200","1.0151","0.0760"
"7.2800","1.0369","0.0780"
"7.5400","1.0586","0.0795"
"7.8000","1.0802","0.0813"
"8.0600","1.1018","0.0838"
"8.3200","1.1234","0.0858"
"8.5800","1.1452","0.0878"
"8.8400","1.1668","0.0898"
"9.1000","1.1886","0.0914"
"9.3600","1.2102","0.0938"
"9.6200","1.2318","0.0955"
"9.8800","1.2535","0.0978"
"10.1400","1.2751","0.0998"
"10.4000","1.2969","0.1017"
"10.6600","1.3186","0.1036"
"10.9200","1.3401","0.1054"
"11.1800","1.3618","0.1076"
"11.4400","1.3834","0.1094"
"11.7000","1.4053","0.1114"
"11.9600","1.4268","0.1131"
"12.2200","1.4485","0.1153"
"12.4800","1.4702","0.1168"
"12.7400","1.4918","0.1187"
"13.0000","1.5135","0.1210"
"13.2600","1.5352","0.1225"
"13.5200","1.5569","0.1242"
"13.7800","1.5785","0.1262"
"14.0400","1.6001","0.1281"
"14.3000","1.6217","0.1297"
"14.5600","1.6435","0.1312"
"14.8200","1.6653","0.1332"
"15.0800","1.6867","0.1347"
"15.3400","1.7086","0.1366"
"15.6000","1.7301","0.1389"
"15.8600","1.7519","0.1404"
"16.1200","1.7736","0.1419"
"16.3800","1.7952","0.1435"
"16.6400","1.8169","0.1451"
"16.9000","1.8384","0.1472"
"17.1600","1.8601","0.1488"
"17.4200","1.8818","0.1503"
"17.6800","1.9036","0.1520"
"17.9400","1.9251","0.1536"
"18.2000","1.9469","0.1555"
"18.4600","1.9685","0.1569"
"18.7200","1.9901","0.1585"
"18.9800","2.0120","0.1606"
"19.2400","2.0335","0.1625"
"19.5000","2.0552","0.1637"
"19.7600","2.0768","0.1656"
"20.0200","2.0984","0.1670"
"20.2800","2.1202","0.1687"
"20.5400","2.1419","0.1700"
"20.8000","2.1635","0.1716"
"21.0600","2.1851","0.1734"
"21.3200","2.2069","0.1749"
"21.5800","2.2284","0.1763"
"21.8400","2.2503","0.1780"
"22.1000","2.2719","0.1793"
"22.3600","2.2935","0.1806"
"22.6200","2.3152","0.1823"
"22.8800","2.3368","0.1840"
"23.1400","2.3585","0.1856"
"23.4000","2.3803","0.1870"
"23.6600","2.4018","0.1884"
"23.9200","2.4235","0.1900"
"24.1800","2.4451","0.1915"
"24.4400","2.4668","0.1924"
"24.7000","2.4885","0.1942"
"24.9600","2.5104","0.1957"
"25.2200","2.5319","0.1969"
"25.4800","2.5534","0.1982"
"25.7400","2.5751","0.2002"
"26.0000","2.5968","0.2009"
"26.2600","2.6186","0.2022"
"26.5200","2.6402","0.2040"
"26.7800","2.6618","0.2056"
"27.0400","2.6835","0.2064"
"27.3000","2.7051","0.2083"
"27.5600","2.7268","0.2094"
"27.8200","2.7486","0.2106"
"28.0800","2.7702","0.2121"
"28.3400","2.7918","0.2130"
"28.6000","2.8135","0.2145"
"28.8600","2.8351","0.2164"
"29.1200","2.8569","0.2174"
"29.3800","2.8786","0.2185"
"29.6400","2.9001","0.2197"
"29.9000","2.9219","0.2213"
"30.1600","2.9434","0.2225"
"30.4200","2.9652","0.2236"
"30.6800","2.9869","0.2249"
"30.9400","3.0086","0.2261"
"31.2000","3.0302","0.2270"
"31.4600","3.0517","0.2285"
"31.7200","3.0735","0.2298"
"31.9800","3.0953","0.2310"
"32.2400","3.1168","0.2322"
"32.5000","3.1386","0.2335"
"32.7600","3.1601","0.2350"
"33.0200","3.1819","0.2358"
"33.2800","3.2034","0.2370"
"33.5400","3.2253","0.2382"
"33.8000","3.2468","0.2393"
"34.0600","3.2686","0.2406"
"34.3200","3.2901","0.2417"
"34.5800","3.3117","0.2428"
"34.8400","3.3336","0.2439"
"35.1000","3.3552","0.2449"
"35.3600","3.3769","0.2461"
"35.6200","3.3984","0.2475"
"35.8800","3.4201","0.2482"
"36.1400","3.4418","0.2495"
"36.4000","3.4636","0.2505"
"36.6600","3.4852","0.2516"
"36.9200","3.5069","0.2524"
"37.1800","3.5285","0.2535"
"37.4400","3.5501","0.2546"
"37.7000","3.5719","0.2558"
"37.9600","3.5936","0.2562"
"38.2200","3.6151","0.2576"
"38.4800","3.6369","0.2587"
"38.7400","3.6584","0.2597"
"39.0000","3.6802","0.2608"
"39.2600","3.7019","0.2615"
"39.5200","3.7235","0.2626"
"39.7800","3.7452","0.2636"
"40.0400","3.7668","0.2648"
"40.3000","3.7884","0.2655"
"40.5600","3.8102","0.2664"
"40.8200","3.8319","0.2674"
"41.0800","3.8534","0.2679"
"41.3400","3.8751","0.2695"
"41.6000","3.8969","0.2708"
"41.8600","3.9184","0.2709"
"42.1200","3.9402","0.2721"
"42.3800","3.9618","0.2730"
"42.6400","3.9836","0.2739"
"42.9000","4.0052","0.2748"
"43.1600","4.0268","0.2754"
"43.4200","4.0485","0.2765"
"43.6800","4.0703","0.2772"
"43.9400","4.0919","0.2779"
"44.2000","4.1134","0.2786"
"44.4600","4.1352","0.2802"
"44.7200","4.1567","0.2814"
"44.9800","4.1785","0.2818"
"45.2400","4.2003","0.2832"
"45.5000","4.2219","0.2836"
"45.7600","4.2436","0.2844"
"46.0200","4.2651","0.2858"
"46.2800","4.2868","0.2863"
"46.5400","4.3086","0.2873"
"46.8000","4.3301","0.2881"
"47.0600","4.3519","0.2893"
"47.3200","4.3734","0.2900"
"47.5800","4.3951","0.2910"
"47.8400","4.4168","0.2919"
"48.1000","4.4386","0.2926"
"48.3600","4.4602","0.2934"
"48.6200","4.4818","0.2942"
"48.8800","4.5035","0.2948"
"49.1400","4.5251","0.2958"
"49.4000","4.5469","0.2966"
"49.6600","4.5686","0.2974"
"49.9200","4.5901","0.2982"
"50.1800","4.6119","0.2989"
"50.4400","4.6334","0.2998"
"50.7000","4.6553","0.3007"
"50.9600","4.6768","0.3014"
"51.2200","4.6986","0.3018"
"51.4800","4.7201","0.3029"
"51.7400","4.7418","0.3033"
"52.0000","4.7635","0.3043"
"52.2600","4.7852","0.3048"
"52.5200","4.8069","0.3057"
"52.7800","4.8285","0.3059"
"53.0400","4.8502","0.3070"
"53.3000","4.8718","0.3080"
"53.5600","4.8935","0.3083"
"53.8200","4.9152","0.3087"
"54.0800","4.9368","0.3098"
"54.3400","4.9586","0.3102"
"54.6000","4.9801","0.3109"
"54.8600","5.0019","0.3119"
"55.1200","5.0236","0.3130"
"55.3800","5.0452","0.3133"
"55.6400","5.0669","0.3142"
"55.9000","5.0884","0.3149"
"56.1600","5.1102","0.3155"
"56.4200","5.1318","0.3163"
"56.6800","5.1536","0.3169"
"56.9400","5.1751","0.3176"
"57.2000","5.1969","0.3181"
"57.4600","5.2185","0.3188"
"57.7200","5.2401","0.3196"
"57.9800","5.2619","0.3202"
"58.2400","5.2835","0.3209"
"58.5000","5.3052","0.3215"
"58.7600","5.3269","0.3219"
"59.0200","5.3484","0.3226"
"59.2800","5.3702","0.3227"
"59.5400","5.3918","0.3238"
"59.8000","5.4135","0.3238"
"60.0600","5.4351","0.3248"
"60.3200","5.4569","0.3252"
"60.5800","5.4784","0.3259"
"60.8400","5.5003","0.3262"
"61.1000","5.5220","0.3266"
"61.3600","5.5435","0.3273"
"61.6200","5.5653","0.3265"
"61.8800","5.5868","0.3273"
"62.1400","5.6085","0.3279"
"62.4000","5.6302","0.3284"
"62.6600","5.6518","0.3288"
"62.9200","5.6735","0.3293"
"63.1800","5.6952","0.3295"
"63.4400","5.7168","0.3298"
"63.7000","5.7385","0.3304"
"63.9600","5.7603","0.3305"
"64.2200","5.7818","0.3313"
"64.4800","5.8034","0.3321"
"64.7400","5.8252","0.3329"
"65.0000","5.8467","0.3330"
"65.2600","5.8686","0.3333"
"65.5200","5.8901","0.3343"
"65.7800","5.9119","0.3345"
"66.0400","5.9334","0.3348"
"66.3000","5.9551","0.3355"
"66.5600","5.9769","0.3358"
"66.8200","5.9986","0.3367"
"67.0800","6.0202","0.3360"
"67.3400","6.0418","0.3362"
"67.6000","6.0634","0.3363"
"67.8600","6.0852","0.3363"
"68.1200","6.1068","0.3357"
"68.3800","6.1286","0.3351"
"68.6400","6.1501","0.3261"
"68.9000","6.1719","0.1510"
"69.1600","6.1934","0.1440"
"69.4200","6.2152","0.1413"
"69.6800","6.2369","0.1394"
"69.9400","6.2586","0.1379"
"70.2000","6.2803","0.1369"
"70.4600","6.3018","0.1355"
"70.7200","6.3235","0.1341"
"70.9800","6.3452","0.1340"
"71.2400","6.3668","0.1338"
"71.5000","6.3885","0.1332"
"71.7600","6.4101","0.1332"
"72.0200","6.4318","0.1316"
"72.0320","6.4329","0.1317"