File: flexural/ES100_Trevor_Flexural_Data_3_1.csv
Specimen text inputs : Specimen text input  1,,""

Results Table 1
,Specimen text input  1
"3","b45_f1"

Results Table 2

Time,Displacement,Force
(s),(mm),(kN)
"0.0000","1.6673","0.0202"
"0.3400","1.6944","0.0249"
"0.6800","1.7228","0.0291"
"1.0200","1.7512","0.0335"
"1.3600","1.7795","0.0377"
"1.7000","1.8079","0.0420"
"2.0400","1.8361","0.0460"
"2.3800","1.8644","0.0505"
"2.7200","1.8929","0.0548"
"3.0600","1.9211","0.0595"
"3.4000","1.9496","0.0640"
"3.7400","1.9778","0.0691"
"4.0800","2.0063","0.0730"
"4.4200","2.0346","0.0777"
"4.7600","2.0628","0.0824"
"5.1000","2.0912","0.0868"
"5.4400","2.1196","0.0906"
"5.7800","2.1478","0.0959"
"6.1200","2.1761","0.1001"
"6.4600","2.2044","0.1044"
"6.8000","2.2329","0.1093"
"7.1400","2.2614","0.1138"
"7.4800","2.2895","0.1181"
"7.8200","2.3178","0.1226"
"8.1600","2.3461","0.1273"
"8.5000","2.3745","0.1317"
"8.8400","2.4029","0.1360"
"9.1800","2.4311","0.1404"
"9.5200","2.4596","0.1447"
"9.8600","2.4879","0.1493"
"10.2000","2.5161","0.1536"
"10.5400","2.5444","0.1580"
"10.8800","2.5729","0.1628"
"11.2200","2.6012","0.1673"
"11.5600","2.6296","0.1718"
"11.9000","2.6578","0.1765"
"12.2400","2.6861","0.1805"
"12.5800","2.7145","0.1852"
"12.9200","2.7429","0.1898"
"13.2600","2.7713","0.1940"
"13.6000","2.7994","0.1985"
"13.9400","2.8278","0.2026"
"14.2800","2.8562","0.2071"
"14.6200","2.8845","0.2112"
"14.9600","2.9128","0.2158"
"15.3000","2.9412","0.2202"
"15.6400","2.9695","0.2246"
"15.9800","2.9979","0.2290"
"16.3200","3.0261","0.2332"
"16.6600","3.0545","0.2376"
"17.0000","3.0830","0.2421"
"17.3400","3.1112","0.2461"
"17.6800","3.1395","0.2506"
"18.0200","3.1677","0.2547"
"18.3600","3.1962","0.2589"
"18.7000","3.2246","0.2631"
"19.0400","3.2528","0.2675"
"19.3800","3.2812","0.2715"
"19.7200","3.3096","0.2762"
"20.0600","3.3378","0.2803"
"20.4000","3.3661","0.2844"
"20.7400","3.3945","0.2886"
"21.0800","3.4229","0.2933"
"21.4200","3.4513","0.2971"
"21.7600","3.4794","0.3017"
"22.1000","3.5079","0.3056"
"22.4400","3.5362","0.3096"
"22.7800","3.5645","0.3140"
"23.1200","3.5929","0.3179"
"23.4600","3.6211","0.3224"
"23.8000","3.6494","0.3260"
"24.1400","3.6779","0.3305"
"24.4800","3.7062","0.3347"
"24.8200","3.7346","0.3387"
"25.1600","3.7629","0.3428"
"25.5000","3.7911","0.3466"
"25.8400","3.8196","0.3507"
"26.1800","3.8478","0.3547"
"26.5200","3.8762","0.3587"
"26.8600","3.9046","0.3627"
"27.2000","3.9329","0.3667"
"27.5400","3.9611","0.3709"
"27.8800","3.9894","0.3748"
"28.2200","4.0178","0.3786"
"28.5600","4.0463","0.3825"
"28.9000","4.0745","0.3872"
"29.2400","4.1028","0.3905"
"29.5800","4.1312","0.3950"
"29.9200","4.1594","0.3988"
"30.2600","4.1878","0.4029"
"30.6000","4.2161","0.4069"
"30.9400","4.2446","0.4109"
"31.2800","4.2729","0.4151"
"31.6200","4.3011","0.4188"
"31.9600","4.3294","0.4229"
"32.3000","4.3578","0.4264"
"32.6400","4.3863","0.4305"
"32.9800","4.4145","0.4343"
"33.3200","4.4427","0.4382"
"33.6600","4.4712","0.4418"
"34.0000","4.4996","0.4454"
"34.3400","4.5278","0.4498"
"34.6800","4.5562","0.4533"
"35.0200","4.5846","0.4573"
"35.3600","4.6128","0.4608"
"35.7000","4.6412","0.4645"
"36.0400","4.6694","0.4684"
"36.3800","4.6979","0.4722"
"36.7200","4.7263","0.4758"
"37.0600","4.7546","0.4801"
"37.4000","4.7828","0.4837"
"37.7400","4.8111","0.4877"
"38.0800","4.8395","0.4914"
"38.4200","4.8679","0.4953"
"38.7600","4.8961","0.4992"
"39.1000","4.9246","0.5033"
"39.4400","4.9528","0.5066"
"39.7800","4.9811","0.5105"
"40.1200","5.0096","0.5143"
"40.4600","5.0378","0.5181"
"40.8000","5.0663","0.5218"
"41.1400","5.0946","0.5256"
"41.4800","5.1228","0.5296"
"41.8200","5.1511","0.5329"
"42.1600","5.1795","0.5370"
"42.5000","5.2079","0.5405"
"42.8400","5.2363","0.5438"
"43.1800","5.2644","0.5478"
"43.5200","5.2928","0.5517"
"43.8600","5.3213","0.5550"
"44.2000","5.3494","0.5586"
"44.5400","5.3778","0.5620"
"44.8800","5.4061","0.5660"
"45.2200","5.4344","0.5696"
"45.5600","5.4629","0.5732"
"45.9000","5.4911","0.5768"
"46.2400","5.5196","0.5804"
"46.5800","5.5479","0.5842"
"46.9200","5.5762","0.5876"
"47.2600","5.6044","0.5913"
"47.6000","5.6328","0.5950"
"47.9400","5.6611","0.5994"
"48.2800","5.6896","0.6024"
"48.6200","5.7178","0.6066"
"48.9600","5.7462","0.6105"
"49.3000","5.7745","0.6141"
"49.6400","5.8028","0.6175"
"49.9800","5.8313","0.6209"
"50.3200","5.8595","0.6250"
"50.6600","5.8879","0.6284"
"51.0000","5.9162","0.6318"
"51.3400","5.9444","0.6357"
"51.6800","5.9728","0.6389"
"52.0200","6.0012","0.6428"
"52.3600","6.0296","0.6462"
"52.7000","6.0579","0.6495"
"53.0400","6.0861","0.6531"
"53.3800","6.1144","0.6569"
"53.7200","6.1429","0.6601"
"54.0600","6.1712","0.6636"
"54.4000","6.1995","0.6671"
"54.7400","6.2277","0.6706"
"55.0800","6.2563","0.6734"
"55.4200","6.2845","0.6773"
"55.7600","6.3128","0.6806"
"56.1000","6.3412","0.6836"
"56.4400","6.3696","0.6873"
"56.7800","6.3979","0.6910"
"57.1200","6.4261","0.6941"
"57.4600","6.4544","0.6973"
"57.8000","6.4829","0.7010"
"58.1400","6.5114","0.7046"
"58.4800","6.5395","0.7078"
"58.8200","6.5679","0.7113"
"59.1600","6.5961","0.7147"
"59.5000","6.6244","0.7183"
"59.8400","6.6529","0.7212"
"60.1800","6.6811","0.7245"
"60.5200","6.7096","0.7280"
"60.8600","6.7379","0.7313"
"61.2000","6.7661","0.7347"
"61.5400","6.7944","0.7380"
"61.8800","6.8229","0.7416"
"62.2200","6.8512","0.7448"
"62.5600","6.8796","0.7483"
"62.9000","6.9078","0.7518"
"63.2400","6.9361","0.7550"
"63.5800","6.9645","0.7580"
"63.9200","6.9929","0.7614"
"64.2600","7.0213","0.7645"
"64.6000","7.0494","0.7679"
"64.9400","7.0778","0.7709"
"65.2800","7.1063","0.7738"
"65.6200","7.1344","0.7776"
"65.9600","7.1628","0.7809"
"66.3000","7.1912","0.7843"
"66.6400","7.2195","0.7874"
"66.9800","7.2478","0.7902"
"67.3200","7.2761","0.7940"
"67.6600","7.3045","0.7974"
"68.0000","7.3330","0.7999"
"68.3400","7.3611","0.8039"
"68.6800","7.3894","0.8072"
"69.0200","7.4177","0.8099"
"69.3600","7.4462","0.8134"
"69.7000","7.4746","0.8169"
"70.0400","7.5028","0.8197"
"70.3800","7.5312","0.8227"
"70.7200","7.5596","0.8265"
"71.0600","7.5878","0.8292"
"71.4000","7.6161","0.8326"
"71.7400","7.6446","0.8356"
"72.0800","7.6729","0.8387"
"72.4200","7.7013","0.8421"
"72.7600","7.7294","0.8454"
"73.1000","7.7579","0.8481"
"73.4400","7.7862","0.8514"
"73.7800","7.8145","0.8546"
"74.1200","7.8429","0.8578"
"74.4600","7.8711","0.8611"
"74.8000","7.8995","0.8642"
"75.1400","7.9279","0.8667"
"75.4800","7.9562","0.8700"
"75.8200","7.9846","0.8732"
"76.1600","8.0129","0.8761"
"76.5000","8.0411","0.8795"
"76.8400","8.0696","0.8827"
"77.1800","8.0977","0.8851"
"77.5200","8.1262","0.8884"
"77.8600","8.1546","0.8915"
"78.2000","8.1829","0.8944"
"78.5400","8.2111","0.8974"
"78.8800","8.2394","0.9010"
"79.2200","8.2679","0.9040"
"79.5600","8.2963","0.9069"
"79.9000","8.3245","0.9101"
"80.2400","8.3529","0.9131"
"80.5800","8.3812","0.9162"
"80.9200","8.4095","0.9191"
"81.2600","8.4378","0.9222"
"81.6000","8.4662","0.9253"
"81.9400","8.4946","0.9283"
"82.2800","8.5229","0.9312"
"82.6200","8.5510","0.9338"
"82.9600","8.5795","0.9372"
"83.3000","8.6078","0.9404"
"83.6400","8.6362","0.9431"
"83.9800","8.6645","0.9405"
"84.3200","8.6928","0.9427"
"84.6600","8.7213","0.9454"
"85.0000","8.7496","0.9484"
"85.3400","8.7778","0.9510"
"85.6800","8.8062","0.9529"
"86.0200","8.8346","0.9558"
"86.3600","8.8628","0.9587"
"86.7000","8.8912","0.9617"
"87.0400","8.9194","0.9552"
"87.3800","8.9479","0.9569"
"87.7200","8.9762","0.9595"
"88.0600","9.0046","0.9617"
"88.4000","9.0328","0.9644"
"88.7400","9.0611","0.9673"
"89.0800","9.0895","0.9700"
"89.4200","9.1179","0.9666"
"89.7600","9.1461","0.9684"
"90.1000","9.1745","0.9711"
"90.4400","9.2029","0.9737"
"90.7800","9.2311","0.9761"
"91.1200","9.2596","0.9791"
"91.4600","9.2878","0.9815"
"91.8000","9.3163","0.9844"
"92.1400","9.3446","0.9796"
"92.4800","9.3728","0.9761"
"92.8200","9.4011","0.9771"
"93.1600","9.4295","0.9794"
"93.5000","9.4579","0.9811"
"93.8400","9.4863","0.9837"
"94.1800","9.5144","0.9859"
"94.5200","9.5428","0.9881"
"94.8600","9.5713","0.9910"
"95.2000","9.5995","0.9936"
"95.5400","9.6279","0.9961"
"95.8800","9.6562","0.9987"
"96.2200","9.6845","1.0008"
"96.5600","9.7129","1.0033"
"96.9000","9.7411","1.0060"
"97.2400","9.7696","1.0052"
"97.5800","9.7979","0.9202"
"97.9200","9.8262","0.9150"
"98.2600","9.8544","0.9134"
"98.6000","9.8828","0.9136"
"98.9400","9.9111","0.9143"
"99.2800","9.9396","0.9154"
"99.6200","9.9678","0.9168"
"99.9600","9.9963","0.9184"
"100.3000","10.0245","0.9203"
"100.6400","10.0528","0.9212"
"100.8440","10.0699","0.9220"