File: flexural/ES100_Trevor_Flexural_Data_11_1.csv
Specimen text inputs : Specimen text input  1,,""

Results Table 1
,Specimen text input  1
"11","h45_f1"

Results Table 2

Time,Displacement,Force
(s),(mm),(kN)
"0.0000","0.8652","0.0202"
"0.3400","0.8926","0.0227"
"0.6800","0.9208","0.0253"
"1.0200","0.9492","0.0276"
"1.3600","0.9775","0.0299"
"1.7000","1.0058","0.0322"
"2.0400","1.0343","0.0346"
"2.3800","1.0624","0.0367"
"2.7200","1.0909","0.0394"
"3.0600","1.1193","0.0419"
"3.4000","1.1475","0.0440"
"3.7400","1.1758","0.0463"
"4.0800","1.2041","0.0489"
"4.4200","1.2325","0.0514"
"4.7600","1.2611","0.0538"
"5.1000","1.2891","0.0560"
"5.4400","1.3176","0.0579"
"5.7800","1.3459","0.0605"
"6.1200","1.3741","0.0627"
"6.4600","1.4026","0.0653"
"6.8000","1.4308","0.0678"
"7.1400","1.4592","0.0701"
"7.4800","1.4876","0.0726"
"7.8200","1.5158","0.0751"
"8.1600","1.5441","0.0772"
"8.5000","1.5726","0.0799"
"8.8400","1.6007","0.0820"
"9.1800","1.6293","0.0842"
"9.5200","1.6574","0.0863"
"9.8600","1.6858","0.0892"
"10.2000","1.7143","0.0914"
"10.5400","1.7426","0.0937"
"10.8800","1.7709","0.0956"
"11.2200","1.7991","0.0980"
"11.5600","1.8274","0.1006"
"11.9000","1.8559","0.1026"
"12.2400","1.8841","0.1057"
"12.5800","1.9125","0.1075"
"12.9200","1.9409","0.1097"
"13.2600","1.9692","0.1119"
"13.6000","1.9975","0.1142"
"13.9400","2.0257","0.1165"
"14.2800","2.0541","0.1186"
"14.6200","2.0827","0.1205"
"14.9600","2.1108","0.1232"
"15.3000","2.1392","0.1250"
"15.6400","2.1674","0.1268"
"15.9800","2.1958","0.1295"
"16.3200","2.2243","0.1314"
"16.6600","2.2525","0.1334"
"17.0000","2.2809","0.1354"
"17.3400","2.3093","0.1375"
"17.6800","2.3374","0.1398"
"18.0200","2.3658","0.1417"
"18.3600","2.3942","0.1437"
"18.7000","2.4226","0.1457"
"19.0400","2.4509","0.1476"
"19.3800","2.4791","0.1498"
"19.7200","2.5076","0.1516"
"20.0600","2.5359","0.1534"
"20.4000","2.5642","0.1559"
"20.7400","2.5925","0.1573"
"21.0800","2.6208","0.1599"
"21.4200","2.6492","0.1616"
"21.7600","2.6775","0.1633"
"22.1000","2.7058","0.1656"
"22.4400","2.7342","0.1673"
"22.7800","2.7626","0.1690"
"23.1200","2.7908","0.1712"
"23.4600","2.8192","0.1726"
"23.8000","2.8474","0.1745"
"24.1400","2.8758","0.1764"
"24.4800","2.9043","0.1788"
"24.8200","2.9325","0.1800"
"25.1600","2.9609","0.1817"
"25.5000","2.9891","0.1837"
"25.8400","3.0175","0.1856"
"26.1800","3.0459","0.1869"
"26.5200","3.0741","0.1885"
"26.8600","3.1025","0.1904"
"27.2000","3.1309","0.1924"
"27.5400","3.1591","0.1940"
"27.8800","3.1874","0.1955"
"28.2200","3.2159","0.1972"
"28.5600","3.2443","0.1989"
"28.9000","3.2726","0.2003"
"29.2400","3.3007","0.2019"
"29.5800","3.3292","0.2039"
"29.9200","3.3575","0.2055"
"30.2600","3.3858","0.2070"
"30.6000","3.4142","0.2085"
"30.9400","3.4424","0.2100"
"31.2800","3.4708","0.2115"
"31.6200","3.4993","0.2129"
"31.9600","3.5274","0.2147"
"32.3000","3.5559","0.2162"
"32.6400","3.5842","0.2178"
"32.9800","3.6124","0.2191"
"33.3200","3.6409","0.2198"
"33.6600","3.6691","0.2212"
"34.0000","3.6975","0.2230"
"34.3400","3.7259","0.2241"
"34.6800","3.7543","0.2245"
"35.0200","3.7824","0.2259"
"35.3600","3.8108","0.2277"
"35.7000","3.8391","0.2285"
"36.0400","3.8676","0.2302"
"36.3800","3.8958","0.2313"
"36.7200","3.9241","0.2332"
"37.0600","3.9526","0.2340"
"37.4000","3.9808","0.2354"
"37.7400","4.0092","0.2371"
"38.0800","4.0375","0.2382"
"38.4200","4.0659","0.2394"
"38.7600","4.0943","0.2407"
"39.1000","4.1224","0.2421"
"39.4400","4.1508","0.2434"
"39.7800","4.1792","0.2442"
"40.1200","4.2076","0.2451"
"40.4600","4.2359","0.2460"
"40.8000","4.2641","0.2470"
"41.1400","4.2925","0.2478"
"41.4800","4.3209","0.2492"
"41.8200","4.3491","0.2504"
"42.1600","4.3776","0.2513"
"42.5000","4.4058","0.2526"
"42.8400","4.4342","0.2537"
"43.1800","4.4625","0.2544"
"43.5200","4.4907","0.2552"
"43.8600","4.5193","0.2567"
"44.2000","4.5476","0.2578"
"44.5400","4.5759","0.2585"
"44.8800","4.6041","0.2597"
"45.2200","4.6324","0.2599"
"45.5600","4.6608","0.2608"
"45.9000","4.6892","0.2619"
"46.2400","4.7174","0.2628"
"46.5800","4.7459","0.2639"
"46.9200","4.7742","0.2647"
"47.2600","4.8024","0.2661"
"47.6000","4.8309","0.2668"
"47.9400","4.8591","0.2680"
"48.2800","4.8876","0.2693"
"48.6200","4.9159","0.2701"
"48.9600","4.9441","0.2710"
"49.3000","4.9725","0.2719"
"49.6400","5.0009","0.2730"
"49.9800","5.0293","0.2738"
"50.3200","5.0576","0.2743"
"50.6600","5.0858","0.2757"
"51.0000","5.1141","0.2761"
"51.3400","5.1426","0.2774"
"51.6800","5.1708","0.2782"
"52.0200","5.1993","0.2788"
"52.3600","5.2274","0.2801"
"52.7000","5.2559","0.2810"
"53.0400","5.2842","0.2813"
"53.3800","5.3124","0.2825"
"53.7200","5.3408","0.2832"
"54.0600","5.3692","0.2838"
"54.4000","5.3975","0.2846"
"54.7400","5.4258","0.2855"
"55.0800","5.4541","0.2865"
"55.4200","5.4826","0.2871"
"55.7600","5.5110","0.2880"
"56.1000","5.5391","0.2889"
"56.4400","5.5676","0.2899"
"56.7800","5.5959","0.2909"
"57.1200","5.6241","0.2917"
"57.4600","5.6526","0.2918"
"57.8000","5.6808","0.2929"
"58.1400","5.7092","0.2943"
"58.4800","5.7376","0.2946"
"58.8200","5.7657","0.2952"
"59.1600","5.7941","0.2960"
"59.5000","5.8226","0.2967"
"59.8400","5.8509","0.2976"
"60.1800","5.8793","0.2985"
"60.5200","5.9074","0.2994"
"60.8600","5.9358","0.3005"
"61.2000","5.9642","0.3008"
"61.5400","5.9926","0.3018"
"61.8800","6.0209","0.3023"
"62.2200","6.0491","0.3034"
"62.5600","6.0775","0.3039"
"62.9000","6.1059","0.3045"
"63.2400","6.1341","0.3056"
"63.5800","6.1624","0.3062"
"63.9200","6.1909","0.3067"
"64.2600","6.2192","0.3073"
"64.6000","6.2475","0.3077"
"64.9400","6.2758","0.3081"
"65.2800","6.3041","0.3087"
"65.6200","6.3326","0.3091"
"65.9600","6.3608","0.3098"
"66.3000","6.3892","0.3104"
"66.6400","6.4174","0.3106"
"66.9800","6.4458","0.3116"
"67.3200","6.4742","0.3118"
"67.6600","6.5025","0.3131"
"68.0000","6.5309","0.3137"
"68.3400","6.5592","0.3142"
"68.6800","6.5874","0.3146"
"69.0200","6.6157","0.3151"
"69.3600","6.6441","0.3156"
"69.7000","6.6725","0.3165"
"70.0400","6.7009","0.3169"
"70.3800","6.7291","0.3174"
"70.7200","6.7576","0.3179"
"71.0600","6.7859","0.3183"
"71.4000","6.8143","0.3193"
"71.7400","6.8426","0.3196"
"72.0800","6.8708","0.3202"
"72.4200","6.8991","0.3210"
"72.7600","6.9276","0.3210"
"73.1000","6.9558","0.3222"
"73.4400","6.9842","0.3225"
"73.7800","7.0126","0.3226"
"74.1200","7.0408","0.3229"
"74.4600","7.0692","0.3233"
"74.8000","7.0974","0.3238"
"75.1400","7.1258","0.3246"
"75.4800","7.1543","0.3251"
"75.8200","7.1824","0.3257"
"76.1600","7.2108","0.3265"
"76.5000","7.2391","0.3271"
"76.8400","7.2675","0.3273"
"77.1800","7.2959","0.3279"
"77.5200","7.3241","0.3280"
"77.8600","7.3525","0.3288"
"78.2000","7.3809","0.3295"
"78.5400","7.4091","0.3297"
"78.8800","7.4374","0.3298"
"79.2200","7.4658","0.3302"
"79.5600","7.4943","0.3308"
"79.9000","7.5226","0.3314"
"80.2400","7.5507","0.3317"
"80.5800","7.5791","0.3318"
"80.9200","7.6076","0.3321"
"81.2600","7.6359","0.3328"
"81.6000","7.6642","0.3332"
"81.9400","7.6924","0.3338"
"82.2800","7.7209","0.3340"
"82.6200","7.7492","0.3343"
"82.9600","7.7775","0.3345"
"83.3000","7.8058","0.3348"
"83.6400","7.8342","0.3356"
"83.9800","7.8625","0.3355"
"84.3200","7.8908","0.3359"
"84.6600","7.9191","0.3365"
"85.0000","7.9476","0.3369"
"85.3400","7.9759","0.3372"
"85.6800","8.0042","0.3375"
"86.0200","8.0324","0.3374"
"86.3600","8.0608","0.3383"
"86.7000","8.0891","0.3380"
"87.0400","8.1175","0.3387"
"87.3800","8.1458","0.3386"
"87.7200","8.1742","0.3392"
"88.0600","8.2025","0.3395"
"88.4000","8.2308","0.3404"
"88.7400","8.2592","0.3402"
"89.0800","8.2875","0.3407"
"89.4200","8.3159","0.3405"
"89.7600","8.3443","0.3411"
"90.1000","8.3724","0.3415"
"90.4400","8.4008","0.3415"
"90.7800","8.4292","0.3418"
"91.1200","8.4576","0.3422"
"91.4600","8.4859","0.3424"
"91.8000","8.5141","0.3429"
"92.1400","8.5425","0.3425"
"92.4800","8.5709","0.3431"
"92.8200","8.5991","0.3435"
"93.1600","8.6276","0.3434"
"93.5000","8.6558","0.3436"
"93.8400","8.6842","0.3438"
"94.1800","8.7126","0.3439"
"94.5200","8.7408","0.3436"
"94.8600","8.7693","0.3435"
"95.2000","8.7976","0.3431"
"95.5400","8.8259","0.3433"
"95.8800","8.8541","0.3433"
"96.2200","8.8824","0.3428"
"96.5600","8.9108","0.3419"
"96.9000","8.9392","0.3405"
"97.2400","8.9675","0.3373"
"97.5800","8.9959","0.3350"
"97.9200","9.0242","0.3297"
"98.2600","9.0524","0.3255"
"98.6000","9.0809","0.3188"
"98.9400","9.1092","0.0107"
"99.2800","9.1376","0.0110"
"99.6200","9.1659","0.0111"
"99.9600","9.1941","0.0120"
"100.3000","9.2225","0.0117"
"100.6400","9.2509","0.0117"
"100.9800","9.2792","0.0118"
"101.3200","9.3076","0.0117"
"101.3660","9.3113","0.0124"