File: flexural/ES100_Trevor_Flexural_Data_6_1.csv
Specimen text inputs : Specimen text input  1,,""

Results Table 1
,Specimen text input  1
"6","f0_f2"

Results Table 2

Time,Displacement,Force
(s),(mm),(kN)
"0.0000","1.3860","0.0202"
"0.4400","1.4214","0.0242"
"0.8800","1.4582","0.0271"
"1.3200","1.4949","0.0304"
"1.7600","1.5316","0.0332"
"2.2000","1.5682","0.0364"
"2.6400","1.6048","0.0401"
"3.0800","1.6416","0.0431"
"3.5200","1.6782","0.0461"
"3.9600","1.7149","0.0494"
"4.4000","1.7516","0.0525"
"4.8400","1.7881","0.0555"
"5.2800","1.8248","0.0590"
"5.7200","1.8615","0.0619"
"6.1600","1.8981","0.0653"
"6.6000","1.9348","0.0685"
"7.0400","1.9715","0.0719"
"7.4800","2.0083","0.0750"
"7.9200","2.0448","0.0782"
"8.3600","2.0816","0.0814"
"8.8000","2.1183","0.0847"
"9.2400","2.1549","0.0879"
"9.6800","2.1915","0.0910"
"10.1200","2.2281","0.0942"
"10.5600","2.2648","0.0970"
"11.0000","2.3014","0.1001"
"11.4400","2.3381","0.1031"
"11.8800","2.3748","0.1061"
"12.3200","2.4115","0.1088"
"12.7600","2.4482","0.1116"
"13.2000","2.4849","0.1149"
"13.6400","2.5216","0.1176"
"14.0800","2.5583","0.1204"
"14.5200","2.5949","0.1231"
"14.9600","2.6315","0.1260"
"15.4000","2.6681","0.1284"
"15.8400","2.7047","0.1316"
"16.2800","2.7414","0.1342"
"16.7200","2.7782","0.1367"
"17.1600","2.8149","0.1396"
"17.6000","2.8515","0.1424"
"18.0400","2.8882","0.1447"
"18.4800","2.9248","0.1470"
"18.9200","2.9615","0.1502"
"19.3600","2.9983","0.1524"
"19.8000","3.0349","0.1554"
"20.2400","3.0716","0.1574"
"20.6800","3.1082","0.1597"
"21.1200","3.1449","0.1625"
"21.5600","3.1814","0.1647"
"22.0000","3.2182","0.1672"
"22.4400","3.2549","0.1699"
"22.8800","3.2914","0.1720"
"23.3200","3.3282","0.1743"
"23.7600","3.3648","0.1769"
"24.2000","3.4014","0.1791"
"24.6400","3.4382","0.1817"
"25.0800","3.4749","0.1838"
"25.5200","3.5116","0.1861"
"25.9600","3.5482","0.1880"
"26.4000","3.5849","0.1906"
"26.8400","3.6214","0.1927"
"27.2800","3.6581","0.1950"
"27.7200","3.6948","0.1971"
"28.1600","3.7315","0.1996"
"28.6000","3.7682","0.2012"
"29.0400","3.8049","0.2037"
"29.4800","3.8416","0.2054"
"29.9200","3.8782","0.2074"
"30.3600","3.9149","0.2094"
"30.8000","3.9516","0.2120"
"31.2400","3.9882","0.2135"
"31.6800","4.0248","0.2157"
"32.1200","4.0614","0.2180"
"32.5600","4.0981","0.2196"
"33.0000","4.1348","0.2216"
"33.4400","4.1716","0.2238"
"33.8800","4.2083","0.2256"
"34.3200","4.2449","0.2277"
"34.7600","4.2815","0.2296"
"35.2000","4.3181","0.2310"
"35.6400","4.3548","0.2330"
"36.0800","4.3916","0.2346"
"36.5200","4.4282","0.2366"
"36.9600","4.4648","0.2385"
"37.4000","4.5015","0.2402"
"37.8400","4.5381","0.2418"
"38.2800","4.5748","0.2436"
"38.7200","4.6115","0.2456"
"39.1600","4.6481","0.2470"
"39.6000","4.6848","0.2491"
"40.0400","4.7215","0.2506"
"40.4800","4.7582","0.2524"
"40.9200","4.7948","0.2541"
"41.3600","4.8316","0.2554"
"41.8000","4.8683","0.2569"
"42.2400","4.9049","0.2589"
"42.6800","4.9415","0.2607"
"43.1200","4.9781","0.2622"
"43.5600","5.0148","0.2637"
"44.0000","5.0514","0.2650"
"44.4400","5.0881","0.2668"
"44.8800","5.1248","0.2684"
"45.3200","5.1615","0.2700"
"45.7600","5.1983","0.2717"
"46.2000","5.2349","0.2731"
"46.6400","5.2716","0.2747"
"47.0800","5.3083","0.2763"
"47.5200","5.3449","0.2776"
"47.9600","5.3815","0.2792"
"48.4000","5.4181","0.2805"
"48.8400","5.4548","0.2823"
"49.2800","5.4914","0.2837"
"49.7200","5.5282","0.2855"
"50.1600","5.5649","0.2871"
"50.6000","5.6015","0.2887"
"51.0400","5.6383","0.2900"
"51.4800","5.6748","0.2910"
"51.9200","5.7115","0.2925"
"52.3600","5.7482","0.2946"
"52.8000","5.7849","0.2957"
"53.2400","5.8216","0.2972"
"53.6800","5.8583","0.2985"
"54.1200","5.8948","0.3001"
"54.5600","5.9314","0.3011"
"55.0000","5.9682","0.3022"
"55.4400","6.0049","0.3036"
"55.8800","6.0415","0.3050"
"56.3200","6.0781","0.3064"
"56.7600","6.1148","0.3077"
"57.2000","6.1514","0.3088"
"57.6400","6.1882","0.3101"
"58.0800","6.2249","0.3113"
"58.5200","6.2617","0.3129"
"58.9600","6.2983","0.3132"
"59.4000","6.3348","0.3150"
"59.8400","6.3714","0.3163"
"60.2800","6.4081","0.3172"
"60.7200","6.4448","0.3187"
"61.1600","6.4815","0.3199"
"61.6000","6.5182","0.3209"
"62.0400","6.5549","0.3220"
"62.4800","6.5915","0.3232"
"62.9200","6.6282","0.3242"
"63.3600","6.6648","0.3252"
"63.8000","6.7016","0.3266"
"64.2400","6.7382","0.3275"
"64.6800","6.7748","0.3286"
"65.1200","6.8114","0.3300"
"65.5600","6.8481","0.3309"
"66.0000","6.8849","0.3320"
"66.4400","6.9215","0.3332"
"66.8800","6.9582","0.3337"
"67.3200","6.9949","0.3351"
"67.7600","7.0316","0.3366"
"68.2000","7.0682","0.3373"
"68.6400","7.1048","0.3384"
"69.0800","7.1416","0.3392"
"69.5200","7.1782","0.3402"
"69.9600","7.2149","0.3413"
"70.4000","7.2516","0.3425"
"70.8400","7.2881","0.3432"
"71.2800","7.3248","0.3444"
"71.7200","7.3614","0.3451"
"72.1600","7.3982","0.3462"
"72.6000","7.4348","0.3476"
"73.0400","7.4715","0.3484"
"73.4800","7.5082","0.3490"
"73.9200","7.5449","0.3501"
"74.3600","7.5816","0.3510"
"74.8000","7.6183","0.3524"
"75.2400","7.6549","0.3531"
"75.6800","7.6915","0.3537"
"76.1200","7.7281","0.3548"
"76.5600","7.7648","0.3558"
"77.0000","7.8014","0.3561"
"77.4400","7.8381","0.3576"
"77.8800","7.8748","0.3584"
"78.3200","7.9115","0.3591"
"78.7600","7.9483","0.3600"
"79.2000","7.9849","0.3609"
"79.6400","8.0216","0.3619"
"80.0800","8.0583","0.3624"
"80.5200","8.0949","0.3631"
"80.9600","8.1316","0.3645"
"81.4000","8.1681","0.3647"
"81.8400","8.2047","0.3656"
"82.2800","8.2414","0.3665"
"82.7200","8.2782","0.3672"
"83.1600","8.3149","0.3685"
"83.6000","8.3515","0.3692"
"84.0400","8.3882","0.3698"
"84.4800","8.4248","0.3704"
"84.9200","8.4615","0.3712"
"85.3600","8.4983","0.3720"
"85.8000","8.5349","0.3725"
"86.2400","8.5716","0.3735"
"86.6800","8.6082","0.3742"
"87.1200","8.6449","0.3754"
"87.5600","8.6815","0.3754"
"88.0000","8.7182","0.3760"
"88.4400","8.7549","0.3773"
"88.8800","8.7914","0.3776"
"89.3200","8.8281","0.3781"
"89.7600","8.8648","0.3791"
"90.2000","8.9015","0.3799"
"90.6400","8.9382","0.3804"
"91.0800","8.9749","0.3810"
"91.5200","9.0116","0.3819"
"91.9600","9.0483","0.3825"
"92.4000","9.0848","0.3835"
"92.8400","9.1214","0.3842"
"93.2800","9.1581","0.3845"
"93.7200","9.1948","0.3851"
"94.1600","9.2314","0.3862"
"94.6000","9.2682","0.3861"
"95.0400","9.3049","0.3872"
"95.4800","9.3415","0.3877"
"95.9200","9.3782","0.3883"
"96.3600","9.4149","0.3888"
"96.8000","9.4516","0.3898"
"97.2400","9.4882","0.3903"
"97.6800","9.5248","0.3912"
"98.1200","9.5614","0.3915"
"98.5600","9.5981","0.3917"
"99.0000","9.6348","0.3923"
"99.4400","9.6716","0.3935"
"99.8800","9.7083","0.3938"
"100.3200","9.7449","0.3948"
"100.7600","9.7816","0.3948"
"101.2000","9.8182","0.3953"
"101.6400","9.8548","0.3960"
"102.0800","9.8915","0.3965"
"102.5200","9.9282","0.3968"
"102.9600","9.9649","0.3980"
"103.4000","10.0016","0.3983"
"103.8400","10.0381","0.3989"
"104.2800","10.0748","0.3996"
"104.7200","10.1115","0.4000"
"105.1600","10.1481","0.4005"
"105.6000","10.1848","0.4010"
"106.0400","10.2215","0.4018"
"106.4800","10.2582","0.4023"
"106.9200","10.2949","0.4029"
"107.3600","10.3316","0.4036"
"107.8000","10.3683","0.4037"
"108.2400","10.4049","0.4044"
"108.6800","10.4415","0.4048"
"109.1200","10.4781","0.4054"
"109.5600","10.5148","0.4059"
"110.0000","10.5514","0.4065"
"110.4400","10.5881","0.4069"
"110.8800","10.6248","0.4074"
"111.3200","10.6615","0.4082"
"111.7600","10.6983","0.4080"
"112.2000","10.7349","0.4089"
"112.6400","10.7716","0.4085"
"113.0800","10.8083","0.4098"
"113.5200","10.8449","0.4103"
"113.9600","10.8816","0.4111"
"114.4000","10.9181","0.4107"
"114.8400","10.9548","0.4118"
"115.2800","10.9914","0.4121"
"115.7200","11.0282","0.4125"
"116.1600","11.0649","0.4126"
"116.6000","11.1016","0.4132"
"117.0400","11.1382","0.4134"
"117.4800","11.1748","0.4136"
"117.9200","11.2115","0.4140"
"118.3600","11.2482","0.4142"
"118.8000","11.2849","0.4143"
"119.2400","11.3216","0.4152"
"119.6800","11.3582","0.4150"
"120.1200","11.3948","0.4155"
"120.5600","11.4314","0.4156"
"121.0000","11.4681","0.4158"
"121.4400","11.5049","0.4165"
"121.8800","11.5415","0.4167"
"122.3200","11.5782","0.4166"
"122.7600","11.6148","0.4160"
"123.2000","11.6516","0.0331"
"123.6400","11.6881","0.0458"
"124.0800","11.7249","0.0461"
"124.5200","11.7617","0.0467"
"124.9600","11.7983","0.0468"
"125.4000","11.8349","0.0466"
"125.8400","11.8714","0.0470"
"126.2800","11.9081","0.0468"
"126.7200","11.9448","0.0470"
"127.1600","11.9815","0.0476"
"127.6000","12.0182","0.0472"
"128.0400","12.0549","0.0472"
"128.1240","12.0618","0.0472"