File: flexural/ES100_Trevor_Flexural_Data_4_1.csv
Specimen text inputs : Specimen text input  1,,""

Results Table 1
,Specimen text input  1
"4","b45_f2"

Results Table 2

Time,Displacement,Force
(s),(mm),(kN)
"0.0000","1.6326","0.0202"
"0.3600","1.6614","0.0261"
"0.7200","1.6916","0.0313"
"1.0800","1.7215","0.0364"
"1.4400","1.7516","0.0413"
"1.8000","1.7815","0.0464"
"2.1600","1.8114","0.0516"
"2.5200","1.8415","0.0564"
"2.8800","1.8714","0.0624"
"3.2400","1.9014","0.0677"
"3.6000","1.9314","0.0729"
"3.9600","1.9615","0.0786"
"4.3200","1.9914","0.0837"
"4.6800","2.0216","0.0894"
"5.0400","2.0514","0.0944"
"5.4000","2.0816","0.0997"
"5.7600","2.1115","0.1056"
"6.1200","2.1416","0.1108"
"6.4800","2.1716","0.1163"
"6.8400","2.2016","0.1218"
"7.2000","2.2314","0.1269"
"7.5600","2.2616","0.1326"
"7.9200","2.2915","0.1379"
"8.2800","2.3216","0.1434"
"8.6400","2.3515","0.1486"
"9.0000","2.3816","0.1541"
"9.3600","2.4115","0.1592"
"9.7200","2.4415","0.1650"
"10.0800","2.4715","0.1705"
"10.4400","2.5015","0.1755"
"10.8000","2.5315","0.1808"
"11.1600","2.5614","0.1862"
"11.5200","2.5915","0.1919"
"11.8800","2.6214","0.1969"
"12.2400","2.6514","0.2023"
"12.6000","2.6814","0.2078"
"12.9600","2.7115","0.2134"
"13.3200","2.7414","0.2186"
"13.6800","2.7716","0.2240"
"14.0400","2.8014","0.2294"
"14.4000","2.8316","0.2344"
"14.7600","2.8615","0.2395"
"15.1200","2.8916","0.2451"
"15.4800","2.9215","0.2505"
"15.8400","2.9516","0.2557"
"16.2000","2.9814","0.2614"
"16.5600","3.0117","0.2665"
"16.9200","3.0414","0.2716"
"17.2800","3.0716","0.2769"
"17.6400","3.1015","0.2821"
"18.0000","3.1316","0.2879"
"18.3600","3.1614","0.2931"
"18.7200","3.1915","0.2985"
"19.0800","3.2215","0.3036"
"19.4400","3.2515","0.3090"
"19.8000","3.2816","0.3139"
"20.1600","3.3114","0.3193"
"20.5200","3.3415","0.3245"
"20.8800","3.3714","0.3298"
"21.2400","3.4014","0.3345"
"21.6000","3.4314","0.3397"
"21.9600","3.4615","0.3450"
"22.3200","3.4914","0.3497"
"22.6800","3.5216","0.3549"
"23.0400","3.5514","0.3601"
"23.4000","3.5816","0.3648"
"23.7600","3.6114","0.3701"
"24.1200","3.6416","0.3750"
"24.4800","3.6715","0.3803"
"24.8400","3.7016","0.3853"
"25.2000","3.7315","0.3904"
"25.5600","3.7617","0.3952"
"25.9200","3.7914","0.4000"
"26.2800","3.8216","0.4055"
"26.6400","3.8515","0.4106"
"27.0000","3.8816","0.4157"
"27.3600","3.9115","0.4204"
"27.7200","3.9415","0.4251"
"28.0800","3.9716","0.4307"
"28.4400","4.0016","0.4353"
"28.8000","4.0316","0.4402"
"29.1600","4.0614","0.4451"
"29.5200","4.0915","0.4496"
"29.8800","4.1214","0.4551"
"30.2400","4.1514","0.4594"
"30.6000","4.1814","0.4644"
"30.9600","4.2115","0.4690"
"31.3200","4.2414","0.4739"
"31.6800","4.2716","0.4790"
"32.0400","4.3014","0.4838"
"32.4000","4.3316","0.4886"
"32.7600","4.3614","0.4933"
"33.1200","4.3916","0.4985"
"33.4800","4.4215","0.5031"
"33.8400","4.4516","0.5081"
"34.2000","4.4815","0.5129"
"34.5600","4.5117","0.5176"
"34.9200","4.5415","0.5223"
"35.2800","4.5716","0.5274"
"35.6400","4.6015","0.5320"
"36.0000","4.6315","0.5364"
"36.3600","4.6615","0.5415"
"36.7200","4.6915","0.5459"
"37.0800","4.7214","0.5506"
"37.4400","4.7516","0.5554"
"37.8000","4.7815","0.5599"
"38.1600","4.8114","0.5642"
"38.5200","4.8415","0.5693"
"38.8800","4.8714","0.5735"
"39.2400","4.9014","0.5782"
"39.6000","4.9315","0.5826"
"39.9600","4.9615","0.5870"
"40.3200","4.9914","0.5918"
"40.6800","5.0216","0.5971"
"41.0400","5.0514","0.6015"
"41.4000","5.0815","0.6060"
"41.7600","5.1115","0.6104"
"42.1200","5.1416","0.6150"
"42.4800","5.1715","0.6199"
"42.8400","5.2016","0.6243"
"43.2000","5.2315","0.6288"
"43.5600","5.2617","0.6334"
"43.9200","5.2914","0.6378"
"44.2800","5.3216","0.6428"
"44.6400","5.3515","0.6470"
"45.0000","5.3815","0.6518"
"45.3600","5.4115","0.6562"
"45.7200","5.4415","0.6607"
"46.0800","5.4716","0.6652"
"46.4400","5.5015","0.6695"
"46.8000","5.5315","0.6740"
"47.1600","5.5614","0.6788"
"47.5200","5.5916","0.6832"
"47.8800","5.6214","0.6877"
"48.2400","5.6514","0.6923"
"48.6000","5.6815","0.6972"
"48.9600","5.7115","0.7015"
"49.3200","5.7415","0.7060"
"49.6800","5.7716","0.7106"
"50.0400","5.8014","0.7151"
"50.4000","5.8316","0.7196"
"50.7600","5.8616","0.7243"
"51.1200","5.8916","0.7284"
"51.4800","5.9216","0.7331"
"51.8400","5.9516","0.7372"
"52.2000","5.9814","0.7416"
"52.5600","6.0117","0.7462"
"52.9200","6.0414","0.7503"
"53.2800","6.0716","0.7545"
"53.6400","6.1015","0.7588"
"54.0000","6.1316","0.7631"
"54.3600","6.1615","0.7675"
"54.7200","6.1915","0.7716"
"55.0800","6.2215","0.7763"
"55.4400","6.2515","0.7803"
"55.8000","6.2816","0.7842"
"56.1600","6.3114","0.7886"
"56.5200","6.3415","0.7927"
"56.8800","6.3714","0.7973"
"57.2400","6.4014","0.8016"
"57.6000","6.4314","0.8058"
"57.9600","6.4614","0.8100"
"58.3200","6.4914","0.8141"
"58.6800","6.5216","0.8184"
"59.0400","6.5514","0.8227"
"59.4000","6.5816","0.8270"
"59.7600","6.6115","0.8311"
"60.1200","6.6415","0.8354"
"60.4800","6.6716","0.8400"
"60.8400","6.7016","0.8439"
"61.2000","6.7315","0.8482"
"61.5600","6.7616","0.8520"
"61.9200","6.7914","0.8556"
"62.2800","6.8216","0.8605"
"62.6400","6.8516","0.8646"
"63.0000","6.8816","0.8686"
"63.3600","6.9115","0.8725"
"63.7200","6.9415","0.8767"
"64.0800","6.9715","0.8811"
"64.4400","7.0015","0.8848"
"64.8000","7.0315","0.8891"
"65.1600","7.0614","0.8930"
"65.5200","7.0915","0.8974"
"65.8800","7.1214","0.9016"
"66.2400","7.1515","0.9054"
"66.6000","7.1814","0.9100"
"66.9600","7.2115","0.9143"
"67.3200","7.2414","0.9181"
"67.6800","7.2716","0.9223"
"68.0400","7.3014","0.9263"
"68.4000","7.3316","0.9304"
"68.7600","7.3614","0.9347"
"69.1200","7.3916","0.9385"
"69.4800","7.4216","0.9427"
"69.8400","7.4516","0.9469"
"70.2000","7.4815","0.9511"
"70.5600","7.5117","0.9550"
"70.9200","7.5414","0.9590"
"71.2800","7.5716","0.9629"
"71.6400","7.6015","0.9668"
"72.0000","7.6315","0.9708"
"72.3600","7.6615","0.9744"
"72.7200","7.6916","0.9787"
"73.0800","7.7215","0.9829"
"73.4400","7.7516","0.9868"
"73.8000","7.7816","0.9907"
"74.1600","7.8114","0.9950"
"74.5200","7.8415","0.9983"
"74.8800","7.8714","1.0026"
"75.2400","7.9014","1.0063"
"75.6000","7.9314","1.0101"
"75.9600","7.9615","1.0143"
"76.3200","7.9914","1.0181"
"76.6800","8.0216","1.0222"
"77.0400","8.0514","1.0263"
"77.4000","8.0816","1.0297"
"77.7600","8.1115","1.0339"
"78.1200","8.1416","1.0379"
"78.4800","8.1715","1.0416"
"78.8400","8.2016","1.0453"
"79.2000","8.2314","1.0490"
"79.5600","8.2617","1.0531"
"79.9200","8.2914","1.0566"
"80.2800","8.3216","1.0607"
"80.6400","8.3516","1.0645"
"81.0000","8.3815","1.0680"
"81.3600","8.4115","1.0716"
"81.7200","8.4415","1.0749"
"82.0800","8.4715","1.0788"
"82.4400","8.5016","1.0819"
"82.8000","8.5316","1.0857"
"83.1600","8.5614","1.0893"
"83.5200","8.5915","1.0929"
"83.8800","8.6214","1.0968"
"84.2400","8.6514","1.1001"
"84.6000","8.6814","1.1040"
"84.9600","8.7115","1.1073"
"85.3200","8.7414","1.1112"
"85.6800","8.7716","1.1151"
"86.0400","8.8014","1.1181"
"86.4000","8.8316","1.1205"
"86.7600","8.8615","1.1243"
"87.1200","8.8916","1.1274"
"87.4800","8.9216","1.1313"
"87.8400","8.9516","1.1347"
"88.2000","8.9815","1.1379"
"88.5600","9.0116","1.1412"
"88.9200","9.0415","1.1448"
"89.2800","9.0716","1.1491"
"89.6400","9.1015","1.1518"
"90.0000","9.1316","1.1557"
"90.3600","9.1615","1.1592"
"90.7200","9.1915","1.1627"
"91.0800","9.2214","1.1665"
"91.4400","9.2516","1.1703"
"91.8000","9.2815","1.1733"
"92.1600","9.3114","1.1765"
"92.5200","9.3415","1.1801"
"92.8800","9.3714","1.1835"
"93.2400","9.4014","1.1869"
"93.6000","9.4315","1.1904"
"93.9600","9.4615","1.1941"
"94.3200","9.4914","1.1974"
"94.6800","9.5216","1.2008"
"95.0400","9.5514","1.2040"
"95.4000","9.5816","1.2070"
"95.7600","9.6115","1.1976"
"96.1200","9.6416","1.2003"
"96.4800","9.6716","1.2032"
"96.8400","9.7016","1.1988"
"97.2000","9.7314","1.2013"
"97.5600","9.7616","1.2042"
"97.9200","9.7915","1.2078"
"98.2800","9.8216","1.1590"
"98.6400","9.8515","1.0575"
"99.0000","9.8816","1.0492"
"99.3600","9.9115","1.0458"
"99.7200","9.9415","1.0462"
"100.0800","9.9715","1.0474"
"100.4400","10.0016","0.9680"
"100.8000","10.0316","0.9465"
"101.1600","10.0614","0.9449"
"101.5200","10.0915","0.9457"
"101.8800","10.1214","0.9472"
"102.2400","10.1514","0.9492"
"102.6000","10.1814","0.9478"
"102.9600","10.2114","0.9470"
"103.3200","10.2415","0.9481"
"103.6800","10.2716","0.9504"
"104.0400","10.3014","0.9524"
"104.4000","10.3316","0.9546"
"104.7600","10.3615","0.9562"
"105.1200","10.3915","0.9584"
"105.2380","10.4013","0.9588"