File: flexural/ES100_Trevor_Flexural_Data_9_1.csv
Specimen text inputs : Specimen text input  1,,""

Results Table 1
,Specimen text input  1
"9","h0_f1"

Results Table 2

Time,Displacement,Force
(s),(mm),(kN)
"0.0000","0.5301","0.0202"
"0.2600","0.5505","0.0221"
"0.5200","0.5722","0.0243"
"0.7800","0.5939","0.0254"
"1.0400","0.6154","0.0276"
"1.3000","0.6373","0.0292"
"1.5600","0.6587","0.0305"
"1.8200","0.6804","0.0322"
"2.0800","0.7023","0.0341"
"2.3400","0.7239","0.0360"
"2.6000","0.7456","0.0374"
"2.8600","0.7671","0.0389"
"3.1200","0.7887","0.0408"
"3.3800","0.8105","0.0426"
"3.6400","0.8323","0.0440"
"3.9000","0.8538","0.0455"
"4.1600","0.8755","0.0470"
"4.4200","0.8972","0.0492"
"4.6800","0.9187","0.0505"
"4.9400","0.9406","0.0520"
"5.2000","0.9621","0.0541"
"5.4600","0.9839","0.0555"
"5.7200","1.0055","0.0568"
"5.9800","1.0271","0.0589"
"6.2400","1.0489","0.0607"
"6.5000","1.0706","0.0620"
"6.7600","1.0922","0.0640"
"7.0200","1.1137","0.0655"
"7.2800","1.1355","0.0675"
"7.5400","1.1571","0.0693"
"7.8000","1.1789","0.0710"
"8.0600","1.2006","0.0726"
"8.3200","1.2221","0.0744"
"8.5800","1.2439","0.0761"
"8.8400","1.2654","0.0779"
"9.1000","1.2871","0.0800"
"9.3600","1.3089","0.0818"
"9.6200","1.3305","0.0827"
"9.8800","1.3522","0.0846"
"10.1400","1.3737","0.0865"
"10.4000","1.3955","0.0882"
"10.6600","1.4171","0.0900"
"10.9200","1.4390","0.0915"
"11.1800","1.4605","0.0931"
"11.4400","1.4822","0.0951"
"11.7000","1.5038","0.0963"
"11.9600","1.5254","0.0982"
"12.2200","1.5473","0.1000"
"12.4800","1.5689","0.1015"
"12.7400","1.5905","0.1032"
"13.0000","1.6121","0.1049"
"13.2600","1.6338","0.1062"
"13.5200","1.6555","0.1079"
"13.7800","1.6772","0.1096"
"14.0400","1.6989","0.1112"
"14.3000","1.7205","0.1127"
"14.5600","1.7422","0.1148"
"14.8200","1.7638","0.1163"
"15.0800","1.7855","0.1174"
"15.3400","1.8073","0.1192"
"15.6000","1.8288","0.1205"
"15.8600","1.8505","0.1223"
"16.1200","1.8721","0.1241"
"16.3800","1.8939","0.1249"
"16.6400","1.9155","0.1267"
"16.9000","1.9371","0.1281"
"17.1600","1.9589","0.1294"
"17.4200","1.9804","0.1314"
"17.6800","2.0022","0.1327"
"17.9400","2.0239","0.1341"
"18.2000","2.0456","0.1355"
"18.4600","2.0673","0.1367"
"18.7200","2.0887","0.1389"
"18.9800","2.1105","0.1395"
"19.2400","2.1321","0.1415"
"19.5000","2.1539","0.1428"
"19.7600","2.1754","0.1442"
"20.0200","2.1972","0.1458"
"20.2800","2.2189","0.1468"
"20.5400","2.2404","0.1481"
"20.8000","2.2623","0.1495"
"21.0600","2.2839","0.1510"
"21.3200","2.3056","0.1523"
"21.5800","2.3271","0.1535"
"21.8400","2.3488","0.1552"
"22.1000","2.3705","0.1563"
"22.3600","2.3923","0.1576"
"22.6200","2.4138","0.1592"
"22.8800","2.4354","0.1606"
"23.1400","2.4573","0.1621"
"23.4000","2.4787","0.1633"
"23.6600","2.5006","0.1646"
"23.9200","2.5223","0.1661"
"24.1800","2.5438","0.1672"
"24.4400","2.5656","0.1685"
"24.7000","2.5871","0.1702"
"24.9600","2.6089","0.1709"
"25.2200","2.6306","0.1725"
"25.4800","2.6522","0.1740"
"25.7400","2.6739","0.1751"
"26.0000","2.6955","0.1766"
"26.2600","2.7171","0.1774"
"26.5200","2.7388","0.1794"
"26.7800","2.7607","0.1801"
"27.0400","2.7821","0.1812"
"27.3000","2.8038","0.1826"
"27.5600","2.8255","0.1837"
"27.8200","2.8471","0.1854"
"28.0800","2.8689","0.1862"
"28.3400","2.8904","0.1874"
"28.6000","2.9122","0.1887"
"28.8600","2.9338","0.1899"
"29.1200","2.9554","0.1911"
"29.3800","2.9771","0.1924"
"29.6400","2.9989","0.1936"
"29.9000","3.0206","0.1941"
"30.1600","3.0421","0.1957"
"30.4200","3.0639","0.1970"
"30.6800","3.0854","0.1983"
"30.9400","3.1072","0.1990"
"31.2000","3.1289","0.2006"
"31.4600","3.1504","0.2013"
"31.7200","3.1722","0.2030"
"31.9800","3.1937","0.2035"
"32.2400","3.2156","0.2047"
"32.5000","3.2372","0.2061"
"32.7600","3.2589","0.2072"
"33.0200","3.2806","0.2079"
"33.2800","3.3021","0.2092"
"33.5400","3.3239","0.2105"
"33.8000","3.3455","0.2113"
"34.0600","3.3672","0.2128"
"34.3200","3.3888","0.2134"
"34.5800","3.4105","0.2148"
"34.8400","3.4321","0.2157"
"35.1000","3.4538","0.2167"
"35.3600","3.4756","0.2178"
"35.6200","3.4972","0.2194"
"35.8800","3.5189","0.2200"
"36.1400","3.5405","0.2210"
"36.4000","3.5621","0.2219"
"36.6600","3.5839","0.2230"
"36.9200","3.6055","0.2238"
"37.1800","3.6272","0.2254"
"37.4400","3.6488","0.2257"
"37.7000","3.6705","0.2269"
"37.9600","3.6921","0.2278"
"38.2200","3.7139","0.2290"
"38.4800","3.7356","0.2295"
"38.7400","3.7573","0.2305"
"39.0000","3.7788","0.2318"
"39.2600","3.8004","0.2329"
"39.5200","3.8222","0.2339"
"39.7800","3.8439","0.2343"
"40.0400","3.8654","0.2355"
"40.3000","3.8872","0.2365"
"40.5600","3.9088","0.2375"
"40.8200","3.9304","0.2383"
"41.0800","3.9523","0.2394"
"41.3400","3.9739","0.2402"
"41.6000","3.9956","0.2411"
"41.8600","4.0171","0.2422"
"42.1200","4.0388","0.2430"
"42.3800","4.0604","0.2439"
"42.6400","4.0823","0.2446"
"42.9000","4.1038","0.2458"
"43.1600","4.1255","0.2464"
"43.4200","4.1472","0.2472"
"43.6800","4.1687","0.2477"
"43.9400","4.1906","0.2488"
"44.2000","4.2122","0.2497"
"44.4600","4.2339","0.2504"
"44.7200","4.2556","0.2508"
"44.9800","4.2771","0.2514"
"45.2400","4.2989","0.2531"
"45.5000","4.3206","0.2536"
"45.7600","4.3422","0.2547"
"46.0200","4.3637","0.2552"
"46.2800","4.3856","0.2558"
"46.5400","4.4071","0.2568"
"46.8000","4.4289","0.2575"
"47.0600","4.4506","0.2582"
"47.3200","4.4721","0.2585"
"47.5800","4.4939","0.2599"
"47.8400","4.5154","0.2608"
"48.1000","4.5372","0.2612"
"48.3600","4.5589","0.2620"
"48.6200","4.5804","0.2624"
"48.8800","4.6022","0.2635"
"49.1400","4.6238","0.2639"
"49.4000","4.6455","0.2645"
"49.6600","4.6671","0.2652"
"49.9200","4.6889","0.2662"
"50.1800","4.7105","0.2668"
"50.4400","4.7321","0.2675"
"50.7000","4.7539","0.2679"
"50.9600","4.7754","0.2687"
"51.2200","4.7972","0.2694"
"51.4800","4.8188","0.2702"
"51.7400","4.8405","0.2705"
"52.0000","4.8621","0.2711"
"52.2600","4.8838","0.2719"
"52.5200","4.9056","0.2732"
"52.7800","4.9272","0.2738"
"53.0400","4.9489","0.2745"
"53.3000","4.9705","0.2746"
"53.5600","4.9921","0.2755"
"53.8200","5.0138","0.2765"
"54.0800","5.0355","0.2768"
"54.3400","5.0572","0.2775"
"54.6000","5.0787","0.2783"
"54.8600","5.1006","0.2790"
"55.1200","5.1221","0.2799"
"55.3800","5.1439","0.2802"
"55.6400","5.1656","0.2807"
"55.9000","5.1871","0.2815"
"56.1600","5.2089","0.2819"
"56.4200","5.2304","0.2829"
"56.6800","5.2522","0.2832"
"56.9400","5.2739","0.2837"
"57.2000","5.2955","0.2843"
"57.4600","5.3172","0.2854"
"57.7200","5.3388","0.2857"
"57.9800","5.3604","0.2862"
"58.2400","5.3822","0.2864"
"58.5000","5.4039","0.2869"
"58.7600","5.4254","0.2872"
"59.0200","5.4472","0.2881"
"59.2800","5.4689","0.2884"
"59.5400","5.4904","0.2890"
"59.8000","5.5123","0.2897"
"60.0600","5.5338","0.2899"
"60.3200","5.5555","0.2906"
"60.5800","5.5771","0.2912"
"60.8400","5.5988","0.2919"
"61.1000","5.6205","0.2925"
"61.3600","5.6423","0.2929"
"61.6200","5.6638","0.2934"
"61.8800","5.6855","0.2936"
"62.1400","5.7073","0.2944"
"62.4000","5.7287","0.2948"
"62.6600","5.7506","0.2943"
"62.9200","5.7723","0.2949"
"63.1800","5.7938","0.2948"
"63.4400","5.8156","0.2921"
"63.7000","5.8371","0.2895"
"63.9600","5.8589","0.2888"
"64.2200","5.8806","0.2880"
"64.4800","5.9022","0.2870"
"64.7400","5.9239","0.2871"
"65.0000","5.9455","0.2865"
"65.2600","5.9671","0.2859"
"65.5200","5.9889","0.2845"
"65.7800","6.0107","0.2783"
"66.0400","6.0321","0.2761"
"66.3000","6.0538","0.2749"
"66.5600","6.0755","0.2723"
"66.8200","6.0971","0.2693"
"67.0800","6.1189","0.2666"
"67.3400","6.1405","0.2649"
"67.6000","6.1621","0.2640"
"67.8600","6.1839","0.2626"
"68.1200","6.2054","0.2617"
"68.3800","6.2271","0.2576"
"68.6400","6.2489","0.2534"
"68.9000","6.2706","0.2513"
"69.1600","6.2921","0.2503"
"69.4200","6.3138","0.2494"
"69.6800","6.3354","0.2485"
"69.9400","6.3572","0.2476"
"70.2000","6.3789","0.2467"
"70.4600","6.4004","0.2459"
"70.7200","6.4222","0.2454"
"70.9800","6.4437","0.2439"
"71.2400","6.4655","0.2424"
"71.5000","6.4873","0.2411"
"71.7600","6.5089","0.2377"
"72.0200","6.5306","0.2333"
"72.2800","6.5521","0.2259"
"72.5400","6.5739","0.1808"
"72.8000","6.5955","0.1717"
"73.0600","6.6172","0.1665"
"73.3200","6.6389","0.1619"
"73.5800","6.6605","0.1593"
"73.8400","6.6822","0.1571"
"74.1000","6.7038","0.1561"
"74.3600","6.7256","0.1546"
"74.6200","6.7472","0.1539"
"74.8800","6.7689","0.1529"
"75.1400","6.7904","0.1519"
"75.4000","6.8121","0.1515"
"75.6600","6.8339","0.1501"
"75.9200","6.8556","0.1496"
"76.1800","6.8772","0.1487"
"76.4400","6.8988","0.1480"
"76.7000","6.9204","0.1472"
"76.9600","6.9421","0.1469"
"77.2200","6.9638","0.1466"
"77.4800","6.9856","0.1454"
"77.7400","7.0072","0.1454"
"77.9500","7.0246","0.1447"