File: flexural/ES100_Trevor_Flexural_Data_1_1.csv
Specimen text inputs : Specimen text input  1,,""

Results Table 1
,Specimen text input  1
"1","b0_f1"

Results Table 2

Time,Displacement,Force
(s),(mm),(kN)
"0.0000","7.4539","0.0203"
"0.4800","7.4928","0.0303"
"0.9600","7.5328","0.0396"
"1.4400","7.5729","0.0489"
"1.9200","7.6129","0.0582"
"2.4000","7.6528","0.0677"
"2.8800","7.6928","0.0772"
"3.3600","7.7328","0.0872"
"3.8400","7.7729","0.0968"
"4.3200","7.8129","0.1061"
"4.8000","7.8528","0.1164"
"5.2800","7.8928","0.1260"
"5.7600","7.9328","0.1353"
"6.2400","7.9727","0.1449"
"6.7200","8.0129","0.1546"
"7.2000","8.0529","0.1642"
"7.6800","8.0928","0.1741"
"8.1600","8.1329","0.1838"
"8.6400","8.1728","0.1930"
"9.1200","8.2128","0.2029"
"9.6000","8.2527","0.2122"
"10.0800","8.2928","0.2219"
"10.5600","8.3328","0.2313"
"11.0400","8.3729","0.2408"
"11.5200","8.4128","0.2504"
"12.0000","8.4529","0.2597"
"12.4800","8.4928","0.2694"
"12.9600","8.5328","0.2788"
"13.4400","8.5729","0.2883"
"13.9200","8.6129","0.2982"
"14.4000","8.6528","0.3073"
"14.8800","8.6928","0.3168"
"15.3600","8.7327","0.3261"
"15.8400","8.7729","0.3355"
"16.3200","8.8129","0.3450"
"16.8000","8.8528","0.3536"
"17.2800","8.8928","0.3631"
"17.7600","8.9329","0.3722"
"18.2400","8.9727","0.3814"
"18.7200","9.0129","0.3909"
"19.2000","9.0529","0.4002"
"19.6800","9.0927","0.4096"
"20.1600","9.1329","0.4189"
"20.6400","9.1728","0.4281"
"21.1200","9.2128","0.4370"
"21.6000","9.2528","0.4463"
"22.0800","9.2928","0.4549"
"22.5600","9.3328","0.4641"
"23.0400","9.3729","0.4730"
"23.5200","9.4127","0.4819"
"24.0000","9.4529","0.4915"
"24.4800","9.4928","0.5003"
"24.9600","9.5327","0.5093"
"25.4400","9.5729","0.5185"
"25.9200","9.6129","0.5274"
"26.4000","9.6528","0.5364"
"26.8800","9.6929","0.5452"
"27.3600","9.7328","0.5537"
"27.8400","9.7729","0.5627"
"28.3200","9.8128","0.5718"
"28.8000","9.8527","0.5800"
"29.2800","9.8928","0.5889"
"29.7600","9.9329","0.5977"
"30.2400","9.9727","0.6066"
"30.7200","10.0129","0.6154"
"31.2000","10.0529","0.6241"
"31.6800","10.0928","0.6330"
"32.1600","10.1329","0.6414"
"32.6400","10.1728","0.6500"
"33.1200","10.2128","0.6589"
"33.6000","10.2528","0.6672"
"34.0800","10.2928","0.6758"
"34.5600","10.3329","0.6841"
"35.0400","10.3729","0.6928"
"35.5200","10.4128","0.7011"
"36.0000","10.4529","0.7096"
"36.4800","10.4928","0.7185"
"36.9600","10.5328","0.7268"
"37.4400","10.5729","0.7350"
"37.9200","10.6129","0.7435"
"38.4000","10.6528","0.7521"
"38.8800","10.6928","0.7604"
"39.3600","10.7327","0.7688"
"39.8400","10.7729","0.7767"
"40.3200","10.8128","0.7853"
"40.8000","10.8528","0.7934"
"41.2800","10.8928","0.8021"
"41.7600","10.9329","0.8106"
"42.2400","10.9727","0.8185"
"42.7200","11.0129","0.8270"
"43.2000","11.0529","0.8350"
"43.6800","11.0928","0.8437"
"44.1600","11.1329","0.8514"
"44.6400","11.1728","0.8599"
"45.1200","11.2129","0.8683"
"45.6000","11.2528","0.8760"
"46.0800","11.2928","0.8843"
"46.5600","11.3328","0.8921"
"47.0400","11.3729","0.9003"
"47.5200","11.4127","0.9091"
"48.0000","11.4529","0.9171"
"48.4800","11.4928","0.9255"
"48.9600","11.5328","0.9332"
"49.4400","11.5729","0.9415"
"49.9200","11.6129","0.9498"
"50.4000","11.6528","0.9577"
"50.8800","11.6929","0.9658"
"51.3600","11.7328","0.9739"
"51.8400","11.7729","0.9821"
"52.3200","11.8128","0.9904"
"52.8000","11.8528","0.9985"
"53.2800","11.8928","1.0066"
"53.7600","11.9329","1.0149"
"54.2400","11.9727","1.0228"
"54.7200","12.0129","1.0314"
"55.2000","12.0529","1.0396"
"55.6800","12.0927","1.0478"
"56.1600","12.1329","1.0557"
"56.6400","12.1728","1.0636"
"57.1200","12.2128","1.0719"
"57.6000","12.2528","1.0799"
"58.0800","12.2928","1.0879"
"58.5600","12.3328","1.0958"
"59.0400","12.3729","1.1035"
"59.5200","12.4128","1.1116"
"60.0000","12.4529","1.1195"
"60.4800","12.4928","1.1272"
"60.9600","12.5328","1.1351"
"61.4400","12.5729","1.1425"
"61.9200","12.6129","1.1504"
"62.4000","12.6527","1.1582"
"62.8800","12.6928","1.1654"
"63.3600","12.7327","1.1733"
"63.8400","12.7729","1.1808"
"64.3200","12.8128","1.1889"
"64.8000","12.8528","1.1963"
"65.2800","12.8928","1.2039"
"65.7600","12.9329","1.2114"
"66.2400","12.9727","1.2188"
"66.7200","13.0129","1.2269"
"67.2000","13.0529","1.2342"
"67.6800","13.0928","1.2427"
"68.1600","13.1329","1.2482"
"68.6400","13.1729","1.2555"
"69.1200","13.2129","1.2624"
"69.6000","13.2527","1.2705"
"70.0800","13.2927","1.2774"
"70.5600","13.3328","1.2853"
"71.0400","13.3729","1.2925"
"71.5200","13.4127","1.2998"
"72.0000","13.4528","1.3072"
"72.4800","13.4928","1.3146"
"72.9600","13.5328","1.3217"
"73.4400","13.5729","1.3293"
"73.9200","13.6129","1.3365"
"74.4000","13.6527","1.3437"
"74.8800","13.6928","1.3513"
"75.3600","13.7327","1.3583"
"75.8400","13.7729","1.3658"
"76.3200","13.8128","1.3604"
"76.8000","13.8528","1.3662"
"77.2800","13.8929","1.3732"
"77.7600","13.9329","1.3797"
"78.2400","13.9727","1.3861"
"78.7200","14.0129","1.3935"
"79.2000","14.0529","1.4002"
"79.6800","14.0928","1.4074"
"80.1600","14.1329","1.4140"
"80.6400","14.1728","1.4210"
"81.1200","14.2128","1.4280"
"81.6000","14.2528","1.4347"
"82.0800","14.2928","1.4421"
"82.5600","14.3329","1.4489"
"83.0400","14.3729","1.4558"
"83.5200","14.4127","1.4622"
"84.0000","14.4529","1.4696"
"84.4800","14.4928","1.4764"
"84.9600","14.5327","1.4830"
"85.4400","14.5729","1.4898"
"85.9200","14.6129","1.4776"
"86.4000","14.6528","1.4737"
"86.8800","14.6929","1.4690"
"87.3600","14.7327","1.4728"
"87.8400","14.7729","1.4675"
"88.3200","14.8128","1.4656"
"88.8000","14.8528","1.4581"
"89.2800","14.8928","1.4639"
"89.7600","14.9328","1.4363"
"90.2400","14.9727","1.4318"
"90.7200","15.0129","1.4176"
"91.2000","15.0529","1.4132"
"91.6800","15.0927","1.4090"
"92.1600","15.1329","1.3909"
"92.6400","15.1728","1.3852"
"93.1200","15.2128","1.3836"
"93.6000","15.2528","1.3829"
"94.0800","15.2928","1.3857"
"94.5600","15.3328","1.2882"
"95.0400","15.3729","1.2789"
"95.5200","15.4128","1.2654"
"96.0000","15.4529","1.2502"
"96.4800","15.4928","1.2392"
"96.9600","15.5328","1.2345"
"97.4400","15.5729","1.2314"
"97.9200","15.6129","1.2333"
"98.4000","15.6528","1.2097"
"98.8800","15.6928","1.2032"
"99.3600","15.7328","1.1997"
"99.8400","15.7729","1.2000"
"100.3200","15.8129","1.1887"
"100.8000","15.8528","1.1724"
"101.2800","15.8928","1.1680"
"101.7600","15.9328","1.1497"
"102.2400","15.9727","1.1274"
"102.7200","16.0128","1.1160"
"103.2000","16.0529","1.1081"
"103.6800","16.0928","1.1074"
"104.1600","16.1328","1.1047"
"104.6400","16.1728","1.1014"
"105.1200","16.2128","1.1004"
"105.6000","16.2528","1.1000"
"106.0800","16.2928","1.1018"
"106.5600","16.3328","1.1040"
"107.0400","16.3728","1.1048"
"107.5200","16.4128","1.1063"
"108.0000","16.4529","1.1088"
"108.4800","16.4928","1.1113"
"108.9600","16.5327","1.1140"
"109.4400","16.5729","1.1167"
"109.9200","16.6129","1.1196"
"110.4000","16.6528","1.1221"
"110.8800","16.6928","1.1246"
"111.3600","16.7327","1.1267"
"111.8400","16.7729","1.1197"
"112.3200","16.8128","1.1164"
"112.8000","16.8528","1.1140"
"113.2800","16.8928","1.1065"
"113.7600","16.9328","1.1035"
"114.2400","16.9727","1.1017"
"114.7200","17.0129","1.0992"
"115.2000","17.0529","1.0986"
"115.6800","17.0928","1.0962"
"116.1600","17.1329","1.0958"
"116.6400","17.1728","1.0959"
"117.1200","17.2128","1.0940"
"117.6000","17.2528","1.0884"
"118.0800","17.2928","1.0876"
"118.5600","17.3329","1.0877"
"119.0400","17.3729","1.0886"
"119.5200","17.4128","1.0895"
"120.0000","17.4529","1.0901"
"120.4800","17.4928","1.0905"
"120.9600","17.5328","1.0909"
"121.4400","17.5729","1.0897"
"121.9200","17.6129","1.0897"
"122.4000","17.6528","1.0879"
"122.8800","17.6928","1.0801"
"123.3600","17.7327","1.0794"
"123.8400","17.7729","1.0050"
"124.3200","17.8129","0.7751"
"124.8000","17.8528","0.5441"
"125.2800","17.8928","0.4860"
"125.7600","17.9329","0.4597"
"126.2400","17.9727","0.4581"
"126.7200","18.0129","0.4566"
"127.2000","18.0529","0.4449"
"127.6800","18.0928","0.4420"
"128.1600","18.1329","0.4418"
"128.6400","18.1729","0.4419"
"129.1200","18.2129","0.4416"
"129.6000","18.2528","0.4408"
"130.0800","18.2928","0.4341"
"130.5600","18.3328","0.4301"
"131.0400","18.3729","0.4249"
"131.5200","18.4128","0.4204"
"132.0000","18.4529","0.4105"
"132.4800","18.4928","0.4072"
"132.9600","18.5328","0.4044"
"133.4400","18.5729","0.4029"
"133.9200","18.6129","0.4030"
"134.4000","18.6527","0.4004"
"134.8800","18.6928","0.4009"
"135.3600","18.7327","0.4010"
"135.8400","18.7729","0.4004"
"136.3200","18.8128","0.4006"
"136.8000","18.8528","0.4006"
"137.2800","18.8929","0.3915"
"137.7600","18.9329","0.3899"
"137.9940","18.9524","0.3890"