File: flexural/ES100_Trevor_Flexural_Data_2_1.csv
Specimen text inputs : Specimen text input  1,,""

Results Table 1
,Specimen text input  1
"2","b0_f2"

Results Table 2

Time,Displacement,Force
(s),(mm),(kN)
"0.0000","1.2966","0.0203"
"0.3200","1.3222","0.0261"
"0.6400","1.3488","0.0306"
"0.9600","1.3754","0.0357"
"1.2800","1.4021","0.0408"
"1.6000","1.4288","0.0461"
"1.9200","1.4554","0.0507"
"2.2400","1.4821","0.0559"
"2.5600","1.5088","0.0607"
"2.8800","1.5355","0.0660"
"3.2000","1.5620","0.0715"
"3.5200","1.5888","0.0764"
"3.8400","1.6154","0.0816"
"4.1600","1.6422","0.0866"
"4.4800","1.6687","0.0921"
"4.8000","1.6954","0.0971"
"5.1200","1.7221","0.1026"
"5.4400","1.7489","0.1076"
"5.7600","1.7754","0.1129"
"6.0800","1.8021","0.1187"
"6.4000","1.8287","0.1233"
"6.7200","1.8555","0.1285"
"7.0400","1.8821","0.1342"
"7.3600","1.9087","0.1394"
"7.6800","1.9354","0.1446"
"8.0000","1.9621","0.1498"
"8.3200","1.9888","0.1554"
"8.6400","2.0154","0.1609"
"8.9600","2.0421","0.1660"
"9.2800","2.0688","0.1716"
"9.6000","2.0954","0.1768"
"9.9200","2.1220","0.1822"
"10.2400","2.1488","0.1875"
"10.5600","2.1754","0.1928"
"10.8800","2.2021","0.1988"
"11.2000","2.2287","0.2038"
"11.5200","2.2555","0.2092"
"11.8400","2.2821","0.2146"
"12.1600","2.3089","0.2199"
"12.4800","2.3354","0.2250"
"12.8000","2.3621","0.2306"
"13.1200","2.3888","0.2359"
"13.4400","2.4155","0.2414"
"13.7600","2.4421","0.2469"
"14.0800","2.4689","0.2522"
"14.4000","2.4956","0.2577"
"14.7200","2.5223","0.2627"
"15.0400","2.5488","0.2683"
"15.3600","2.5755","0.2733"
"15.6800","2.6021","0.2791"
"16.0000","2.6288","0.2847"
"16.3200","2.6555","0.2899"
"16.6400","2.6821","0.2955"
"16.9600","2.7089","0.3009"
"17.2800","2.7356","0.3062"
"17.6000","2.7623","0.3114"
"17.9200","2.7888","0.3172"
"18.2400","2.8155","0.3223"
"18.5600","2.8421","0.3276"
"18.8800","2.8689","0.3328"
"19.2000","2.8954","0.3381"
"19.5200","2.9222","0.3434"
"19.8400","2.9489","0.3486"
"20.1600","2.9756","0.3539"
"20.4800","3.0021","0.3594"
"20.8000","3.0288","0.3648"
"21.1200","3.0555","0.3698"
"21.4400","3.0822","0.3753"
"21.7600","3.1088","0.3804"
"22.0800","3.1356","0.3857"
"22.4000","3.1621","0.3914"
"22.7200","3.1889","0.3967"
"23.0400","3.2155","0.4021"
"23.3600","3.2421","0.4077"
"23.6800","3.2689","0.4130"
"24.0000","3.2955","0.4184"
"24.3200","3.3222","0.4240"
"24.6400","3.3487","0.4289"
"24.9600","3.3754","0.4339"
"25.2800","3.4021","0.4393"
"25.6000","3.4288","0.4446"
"25.9200","3.4554","0.4498"
"26.2400","3.4821","0.4550"
"26.5600","3.5088","0.4604"
"26.8800","3.5355","0.4650"
"27.2000","3.5620","0.4708"
"27.5200","3.5888","0.4757"
"27.8400","3.6154","0.4812"
"28.1600","3.6422","0.4865"
"28.4800","3.6687","0.4917"
"28.8000","3.6954","0.4974"
"29.1200","3.7221","0.5026"
"29.4400","3.7489","0.5077"
"29.7600","3.7754","0.5127"
"30.0800","3.8021","0.5181"
"30.4000","3.8287","0.5228"
"30.7200","3.8554","0.5281"
"31.0400","3.8821","0.5336"
"31.3600","3.9088","0.5390"
"31.6800","3.9354","0.5439"
"32.0000","3.9621","0.5491"
"32.3200","3.9888","0.5543"
"32.6400","4.0154","0.5592"
"32.9600","4.0421","0.5642"
"33.2800","4.0688","0.5688"
"33.6000","4.0954","0.5741"
"33.9200","4.1221","0.5789"
"34.2400","4.1487","0.5849"
"34.5600","4.1754","0.5893"
"34.8800","4.2022","0.5949"
"35.2000","4.2287","0.5999"
"35.5200","4.2556","0.6050"
"35.8400","4.2821","0.6096"
"36.1600","4.3089","0.6150"
"36.4800","4.3354","0.6200"
"36.8000","4.3621","0.6251"
"37.1200","4.3888","0.6300"
"37.4400","4.4155","0.6349"
"37.7600","4.4421","0.6404"
"38.0800","4.4688","0.6451"
"38.4000","4.4956","0.6499"
"38.7200","4.5223","0.6549"
"39.0400","4.5488","0.6599"
"39.3600","4.5755","0.6652"
"39.6800","4.6021","0.6699"
"40.0000","4.6289","0.6750"
"40.3200","4.6556","0.6795"
"40.6400","4.6821","0.6845"
"40.9600","4.7089","0.6898"
"41.2800","4.7355","0.6940"
"41.6000","4.7622","0.6996"
"41.9200","4.7887","0.7045"
"42.2400","4.8155","0.7092"
"42.5600","4.8421","0.7143"
"42.8800","4.8689","0.7189"
"43.2000","4.8954","0.7239"
"43.5200","4.9223","0.7289"
"43.8400","4.9489","0.7338"
"44.1600","4.9756","0.7385"
"44.4800","5.0021","0.7440"
"44.8000","5.0289","0.7488"
"45.1200","5.0555","0.7532"
"45.4400","5.0822","0.7584"
"45.7600","5.1088","0.7628"
"46.0800","5.1355","0.7679"
"46.4000","5.1621","0.7724"
"46.7200","5.1889","0.7777"
"47.0400","5.2155","0.7821"
"47.3600","5.2421","0.7873"
"47.6800","5.2688","0.7920"
"48.0000","5.2955","0.7965"
"48.3200","5.3222","0.8017"
"48.6400","5.3487","0.8063"
"48.9600","5.3754","0.8111"
"49.2800","5.4021","0.8159"
"49.6000","5.4288","0.8210"
"49.9200","5.4554","0.8257"
"50.2400","5.4821","0.8303"
"50.5600","5.5089","0.8352"
"50.8800","5.5354","0.8394"
"51.2000","5.5621","0.8447"
"51.5200","5.5888","0.8493"
"51.8400","5.6153","0.8540"
"52.1600","5.6422","0.8586"
"52.4800","5.6687","0.8635"
"52.8000","5.6955","0.8682"
"53.1200","5.7221","0.8727"
"53.4400","5.7488","0.8771"
"53.7600","5.7754","0.8818"
"54.0800","5.8020","0.8864"
"54.4000","5.8288","0.8912"
"54.7200","5.8555","0.8958"
"55.0400","5.8821","0.8999"
"55.3600","5.9088","0.9050"
"55.6800","5.9354","0.9096"
"56.0000","5.9621","0.9146"
"56.3200","5.9888","0.9196"
"56.6400","6.0153","0.9238"
"56.9600","6.0421","0.9284"
"57.2800","6.0687","0.9330"
"57.6000","6.0955","0.9373"
"57.9200","6.1221","0.9422"
"58.2400","6.1488","0.9468"
"58.5600","6.1754","0.9516"
"58.8800","6.2021","0.9563"
"59.2000","6.2287","0.9605"
"59.5200","6.2556","0.9648"
"59.8400","6.2821","0.9693"
"60.1600","6.3089","0.9744"
"60.4800","6.3354","0.9789"
"60.8000","6.3621","0.9830"
"61.1200","6.3888","0.9880"
"61.4400","6.4155","0.9923"
"61.7600","6.4421","0.9972"
"62.0800","6.4688","1.0015"
"62.4000","6.4956","1.0060"
"62.7200","6.5223","1.0105"
"63.0400","6.5488","1.0145"
"63.3600","6.5755","1.0190"
"63.6800","6.6021","1.0243"
"64.0000","6.6289","1.0282"
"64.3200","6.6555","1.0331"
"64.6400","6.6822","1.0376"
"64.9600","6.7089","1.0418"
"65.2800","6.7356","1.0466"
"65.6000","6.7622","1.0488"
"65.9200","6.7888","1.0531"
"66.2400","6.8155","1.0571"
"66.5600","6.8421","1.0615"
"66.8800","6.8689","1.0662"
"67.2000","6.8954","1.0703"
"67.5200","6.9222","1.0744"
"67.8400","6.9489","1.0768"
"68.1600","6.9756","1.0808"
"68.4800","7.0021","1.0851"
"68.8000","7.0288","1.0896"
"69.1200","7.0555","1.0932"
"69.4400","7.0823","1.0973"
"69.7600","7.1088","1.1019"
"70.0800","7.1355","1.0983"
"70.4000","7.1621","1.1018"
"70.7200","7.1889","1.1056"
"71.0400","7.2155","1.1091"
"71.3600","7.2421","1.1123"
"71.6800","7.2689","1.1142"
"72.0000","7.2955","1.1182"
"72.3200","7.3222","1.1221"
"72.6400","7.3487","1.1261"
"72.9600","7.3755","1.1298"
"73.2800","7.4021","1.1340"
"73.6000","7.4288","1.1333"
"73.9200","7.4554","1.1370"
"74.2400","7.4821","1.1353"
"74.5600","7.5089","1.1383"
"74.8800","7.5355","1.1417"
"75.2000","7.5621","1.1456"
"75.5200","7.5887","1.1495"
"75.8400","7.6154","1.1534"
"76.1600","7.6422","1.1571"
"76.4800","7.6686","1.1612"
"76.8000","7.6955","1.1651"
"77.1200","7.7221","1.1668"
"77.4400","7.7488","1.1704"
"77.7600","7.7754","1.1743"
"78.0800","7.8021","1.1782"
"78.4000","7.8288","1.1824"
"78.7200","7.8555","1.1864"
"79.0400","7.8821","1.1904"
"79.3600","7.9088","1.1944"
"79.6800","7.9354","1.1981"
"80.0000","7.9622","1.2006"
"80.3200","7.9887","1.2046"
"80.6400","8.0154","1.2080"
"80.9600","8.0421","1.2117"
"81.2800","8.0688","1.2161"
"81.6000","8.0955","1.2199"
"81.9200","8.1221","1.2234"
"82.2400","8.1488","1.2280"
"82.5600","8.1754","1.2317"
"82.8800","8.2021","1.2358"
"83.2000","8.2287","1.2395"
"83.5200","8.2554","1.2420"
"83.8400","8.2821","1.2371"
"84.1600","8.3088","1.2328"
"84.4800","8.3354","1.2352"
"84.8000","8.3622","1.2375"
"85.1200","8.3888","1.2408"
"85.4400","8.4155","1.2440"
"85.7600","8.4422","1.2468"
"86.0800","8.4689","1.1254"
"86.4000","8.4956","1.0818"
"86.7200","8.5222","1.0719"
"87.0400","8.5488","0.9881"
"87.3600","8.5755","0.9823"
"87.6800","8.6021","0.9820"
"88.0000","8.6289","0.9831"
"88.3200","8.6555","0.9840"
"88.6400","8.6821","0.9853"
"88.9600","8.7089","0.9772"
"89.2800","8.7356","0.9583"
"89.6000","8.7623","0.9559"
"89.9200","8.7887","0.9561"
"90.2400","8.8156","0.9317"
"90.5600","8.8421","0.9273"
"90.8800","8.8689","0.9259"
"91.2000","8.8954","0.9263"
"91.5200","8.9222","0.9274"
"91.8400","8.9488","0.9289"
"92.1600","8.9756","0.9305"
"92.4800","9.0021","0.9324"
"92.8000","9.0289","0.9344"
"93.1200","9.0555","0.9361"
"93.4400","9.0823","0.9353"
"93.7600","9.1088","0.9368"
"93.9220","9.1223","0.9372"