File: flexural/ES100_Trevor_Flexural_Data_13_1.csv
Specimen text inputs : Specimen text input  1,,""

Results Table 1
,Specimen text input  1
"13","bh_f1"

Results Table 2

Time,Displacement,Force
(s),(mm),(kN)
"0.0000","0.4887","0.0204"
"0.2000","0.5045","0.0243"
"0.4000","0.5209","0.0272"
"0.6000","0.5374","0.0302"
"0.8000","0.5542","0.0330"
"1.0000","0.5709","0.0360"
"1.2000","0.5874","0.0392"
"1.4000","0.6041","0.0420"
"1.6000","0.6208","0.0457"
"1.8000","0.6376","0.0484"
"2.0000","0.6543","0.0515"
"2.2000","0.6708","0.0549"
"2.4000","0.6875","0.0579"
"2.6000","0.7041","0.0613"
"2.8000","0.7208","0.0645"
"3.0000","0.7376","0.0675"
"3.2000","0.7542","0.0711"
"3.4000","0.7709","0.0743"
"3.6000","0.7875","0.0775"
"3.8000","0.8041","0.0810"
"4.0000","0.8209","0.0839"
"4.2000","0.8374","0.0871"
"4.4000","0.8541","0.0904"
"4.6000","0.8708","0.0938"
"4.8000","0.8875","0.0967"
"5.0000","0.9042","0.1006"
"5.2000","0.9208","0.1034"
"5.4000","0.9374","0.1072"
"5.6000","0.9541","0.1105"
"5.8000","0.9708","0.1138"
"6.0000","0.9876","0.1173"
"6.2000","1.0042","0.1202"
"6.4000","1.0209","0.1236"
"6.6000","1.0375","0.1272"
"6.8000","1.0542","0.1301"
"7.0000","1.0709","0.1330"
"7.2000","1.0874","0.1363"
"7.4000","1.1041","0.1399"
"7.6000","1.1208","0.1433"
"7.8000","1.1376","0.1460"
"8.0000","1.1543","0.1495"
"8.2000","1.1709","0.1526"
"8.4000","1.1875","0.1559"
"8.6000","1.2041","0.1592"
"8.8000","1.2208","0.1627"
"9.0000","1.2376","0.1658"
"9.2000","1.2542","0.1688"
"9.4000","1.2709","0.1727"
"9.6000","1.2874","0.1754"
"9.8000","1.3041","0.1789"
"10.0000","1.3209","0.1819"
"10.2000","1.3374","0.1851"
"10.4000","1.3542","0.1885"
"10.6000","1.3708","0.1918"
"10.8000","1.3876","0.1947"
"11.0000","1.4043","0.1986"
"11.2000","1.4208","0.2017"
"11.4000","1.4375","0.2047"
"11.6000","1.4541","0.2079"
"11.8000","1.4708","0.2111"
"12.0000","1.4876","0.2142"
"12.2000","1.5042","0.2174"
"12.4000","1.5209","0.2202"
"12.6000","1.5374","0.2238"
"12.8000","1.5541","0.2269"
"13.0000","1.5709","0.2299"
"13.2000","1.5874","0.2332"
"13.4000","1.6041","0.2367"
"13.6000","1.6208","0.2398"
"13.8000","1.6375","0.2429"
"14.0000","1.6543","0.2459"
"14.2000","1.6708","0.2490"
"14.4000","1.6875","0.2516"
"14.6000","1.7041","0.2553"
"14.8000","1.7208","0.2580"
"15.0000","1.7376","0.2614"
"15.2000","1.7542","0.2643"
"15.4000","1.7709","0.2673"
"15.6000","1.7875","0.2704"
"15.8000","1.8041","0.2740"
"16.0000","1.8209","0.2770"
"16.2000","1.8374","0.2798"
"16.4000","1.8541","0.2832"
"16.6000","1.8708","0.2866"
"16.8000","1.8876","0.2894"
"17.0000","1.9042","0.2927"
"17.2000","1.9208","0.2958"
"17.4000","1.9374","0.2986"
"17.6000","1.9541","0.3018"
"17.8000","1.9709","0.3045"
"18.0000","1.9876","0.3077"
"18.2000","2.0042","0.3110"
"18.4000","2.0209","0.3137"
"18.6000","2.0375","0.3171"
"18.8000","2.0541","0.3199"
"19.0000","2.0709","0.3228"
"19.2000","2.0874","0.3255"
"19.4000","2.1041","0.3288"
"19.6000","2.1208","0.3315"
"19.8000","2.1376","0.3344"
"20.0000","2.1543","0.3376"
"20.2000","2.1709","0.3406"
"20.4000","2.1874","0.3430"
"20.6000","2.2041","0.3466"
"20.8000","2.2208","0.3491"
"21.0000","2.2376","0.3520"
"21.2000","2.2542","0.3546"
"21.4000","2.2709","0.3575"
"21.6000","2.2875","0.3605"
"21.8000","2.3042","0.3637"
"22.0000","2.3209","0.3663"
"22.2000","2.3374","0.3690"
"22.4000","2.3541","0.3722"
"22.6000","2.3708","0.3751"
"22.8000","2.3875","0.3774"
"23.0000","2.4043","0.3808"
"23.2000","2.4208","0.3835"
"23.4000","2.4375","0.3864"
"23.6000","2.4541","0.3892"
"23.8000","2.4709","0.3917"
"24.0000","2.4876","0.3948"
"24.2000","2.5042","0.3975"
"24.4000","2.5209","0.4004"
"24.6000","2.5374","0.4035"
"24.8000","2.5541","0.4063"
"25.0000","2.5709","0.4090"
"25.2000","2.5874","0.4119"
"25.4000","2.6041","0.4143"
"25.6000","2.6208","0.4173"
"25.8000","2.6376","0.4200"
"26.0000","2.6543","0.4230"
"26.2000","2.6708","0.4258"
"26.4000","2.6875","0.4284"
"26.6000","2.7041","0.4311"
"26.8000","2.7208","0.4338"
"27.0000","2.7376","0.4366"
"27.2000","2.7543","0.4392"
"27.4000","2.7709","0.4418"
"27.6000","2.7875","0.4445"
"27.8000","2.8041","0.4472"
"28.0000","2.8209","0.4499"
"28.2000","2.8374","0.4526"
"28.4000","2.8541","0.4550"
"28.6000","2.8708","0.4582"
"28.8000","2.8875","0.4601"
"29.0000","2.9043","0.4630"
"29.2000","2.9208","0.4656"
"29.4000","2.9374","0.4680"
"29.6000","2.9541","0.4713"
"29.8000","2.9708","0.4731"
"30.0000","2.9876","0.4757"
"30.2000","3.0043","0.4788"
"30.4000","3.0209","0.4812"
"30.6000","3.0375","0.4838"
"30.8000","3.0541","0.4868"
"31.0000","3.0709","0.4892"
"31.2000","3.0874","0.4921"
"31.4000","3.1041","0.4946"
"31.6000","3.1208","0.4976"
"31.8000","3.1376","0.4999"
"32.0000","3.1543","0.5025"
"32.2000","3.1708","0.5054"
"32.4000","3.1874","0.5079"
"32.6000","3.2041","0.5104"
"32.8000","3.2208","0.5133"
"33.0000","3.2376","0.5159"
"33.2000","3.2542","0.5181"
"33.4000","3.2709","0.5206"
"33.6000","3.2875","0.5233"
"33.8000","3.3041","0.5256"
"34.0000","3.3209","0.5285"
"34.2000","3.3374","0.5308"
"34.4000","3.3541","0.5335"
"34.6000","3.3708","0.5360"
"34.8000","3.3876","0.5385"
"35.0000","3.4042","0.5409"
"35.2000","3.4208","0.5436"
"35.4000","3.4374","0.5460"
"35.6000","3.4541","0.5484"
"35.8000","3.4708","0.5508"
"36.0000","3.4875","0.5531"
"36.2000","3.5043","0.5559"
"36.4000","3.5209","0.5583"
"36.6000","3.5375","0.5609"
"36.8000","3.5541","0.5631"
"37.0000","3.5709","0.5654"
"37.2000","3.5875","0.5678"
"37.4000","3.6041","0.5700"
"37.6000","3.6208","0.5726"
"37.8000","3.6376","0.5748"
"38.0000","3.6543","0.5771"
"38.2000","3.6709","0.5795"
"38.4000","3.6875","0.5823"
"38.6000","3.7041","0.5844"
"38.8000","3.7208","0.5871"
"39.0000","3.7376","0.5897"
"39.2000","3.7543","0.5921"
"39.4000","3.7709","0.5944"
"39.6000","3.7874","0.5965"
"39.8000","3.8042","0.5992"
"40.0000","3.8209","0.6016"
"40.2000","3.8374","0.6041"
"40.4000","3.8541","0.6065"
"40.6000","3.8708","0.6087"
"40.8000","3.8876","0.6111"
"41.0000","3.9042","0.6136"
"41.2000","3.9208","0.6160"
"41.4000","3.9375","0.6184"
"41.6000","3.9541","0.6208"
"41.8000","3.9708","0.6232"
"42.0000","3.9876","0.6257"
"42.2000","4.0042","0.6279"
"42.4000","4.0209","0.6303"
"42.6000","4.0375","0.6326"
"42.8000","4.0541","0.6349"
"43.0000","4.0709","0.6370"
"43.2000","4.0874","0.6394"
"43.4000","4.1041","0.6419"
"43.6000","4.1208","0.6440"
"43.8000","4.1376","0.6463"
"44.0000","4.1543","0.6487"
"44.2000","4.1708","0.6511"
"44.4000","4.1874","0.6530"
"44.6000","4.2041","0.6556"
"44.8000","4.2209","0.6576"
"45.0000","4.2376","0.6603"
"45.2000","4.2543","0.6626"
"45.4000","4.2709","0.6653"
"45.6000","4.2874","0.6669"
"45.8000","4.3042","0.6687"
"46.0000","4.3209","0.6715"
"46.2000","4.3374","0.6736"
"46.4000","4.3541","0.6761"
"46.6000","4.3708","0.6782"
"46.8000","4.3876","0.6802"
"47.0000","4.4043","0.6826"
"47.2000","4.4209","0.6848"
"47.4000","4.4375","0.6868"
"47.6000","4.4541","0.6895"
"47.8000","4.4708","0.6917"
"48.0000","4.4876","0.6940"
"48.2000","4.5042","0.6962"
"48.4000","4.5209","0.6986"
"48.6000","4.5375","0.7005"
"48.8000","4.5542","0.7030"
"49.0000","4.5709","0.7055"
"49.2000","4.5874","0.7073"
"49.4000","4.6041","0.7093"
"49.6000","4.6208","0.7119"
"49.8000","4.6375","0.7139"
"50.0000","4.6543","0.7162"
"50.2000","4.6708","0.7182"
"50.4000","4.6874","0.7204"
"50.6000","4.7041","0.7222"
"50.8000","4.7208","0.7247"
"51.0000","4.7376","0.7266"
"51.2000","4.7543","0.7295"
"51.4000","4.7709","0.7312"
"51.6000","4.7875","0.7333"
"51.8000","4.8042","0.7356"
"52.0000","4.8209","0.7378"
"52.2000","4.8375","0.7397"
"52.4000","4.8541","0.7423"
"52.6000","4.8708","0.7445"
"52.8000","4.8876","0.7466"
"53.0000","4.9043","0.7486"
"53.2000","4.9209","0.7509"
"53.4000","4.9374","0.7531"
"53.6000","4.9541","0.7553"
"53.8000","4.9709","0.7573"
"54.0000","4.9876","0.7594"
"54.2000","5.0042","0.7614"
"54.4000","5.0209","0.7635"
"54.6000","5.0374","0.7656"
"54.8000","5.0541","0.7678"
"55.0000","5.0709","0.7698"
"55.2000","5.0874","0.7710"
"55.4000","5.1041","0.7730"
"55.6000","5.1208","0.7696"
"55.8000","5.1376","0.7547"
"56.0000","5.1543","0.7553"
"56.2000","5.1708","0.7566"
"56.4000","5.1875","0.7581"
"56.6000","5.2041","0.7598"
"56.8000","5.2209","0.7619"
"57.0000","5.2376","0.7588"
"57.2000","5.2543","0.7601"
"57.4000","5.2709","0.7617"
"57.6000","5.2875","0.7635"
"57.8000","5.3041","0.7651"
"58.0000","5.3209","0.7670"
"58.2000","5.3374","0.7693"
"58.4000","5.3541","0.7710"
"58.6000","5.3708","0.7732"
"58.8000","5.3876","0.7750"
"58.8100","5.3884","0.7752"