File: flexural/ES100_Trevor_Flexural_Data_7_1.csv
Specimen text inputs : Specimen text input  1,,""

Results Table 1
,Specimen text input  1
"7","f45_f1"

Results Table 2

Time,Displacement,Force
(s),(mm),(kN)
"0.0000","1.3267","0.0201"
"0.4200","1.3604","0.0235"
"0.8400","1.3955","0.0263"
"1.2600","1.4304","0.0290"
"1.6800","1.4655","0.0320"
"2.1000","1.5006","0.0343"
"2.5200","1.5355","0.0378"
"2.9400","1.5706","0.0405"
"3.3600","1.6055","0.0436"
"3.7800","1.6405","0.0462"
"4.2000","1.6754","0.0487"
"4.6200","1.7105","0.0518"
"5.0400","1.7456","0.0548"
"5.4600","1.7805","0.0573"
"5.8800","1.8155","0.0603"
"6.3000","1.8505","0.0630"
"6.7200","1.8855","0.0665"
"7.1400","1.9204","0.0692"
"7.5600","1.9554","0.0715"
"7.9800","1.9904","0.0744"
"8.4000","2.0254","0.0769"
"8.8200","2.0605","0.0801"
"9.2400","2.0955","0.0829"
"9.6600","2.1306","0.0855"
"10.0800","2.1656","0.0879"
"10.5000","2.2006","0.0906"
"10.9200","2.2356","0.0933"
"11.3400","2.2706","0.0964"
"11.7600","2.3056","0.0986"
"12.1800","2.3405","0.1016"
"12.6000","2.3755","0.1039"
"13.0200","2.4104","0.1064"
"13.4400","2.4455","0.1095"
"13.8600","2.4804","0.1116"
"14.2800","2.5154","0.1144"
"14.7000","2.5504","0.1167"
"15.1200","2.5854","0.1193"
"15.5400","2.6205","0.1215"
"15.9600","2.6555","0.1237"
"16.3800","2.6906","0.1267"
"16.8000","2.7256","0.1287"
"17.2200","2.7607","0.1314"
"17.6400","2.7955","0.1337"
"18.0600","2.8305","0.1359"
"18.4800","2.8654","0.1381"
"18.9000","2.9004","0.1403"
"19.3200","2.9354","0.1428"
"19.7400","2.9704","0.1452"
"20.1600","3.0056","0.1475"
"20.5800","3.0404","0.1496"
"21.0000","3.0755","0.1519"
"21.4200","3.1105","0.1539"
"21.8400","3.1455","0.1560"
"22.2600","3.1805","0.1585"
"22.6800","3.2156","0.1604"
"23.1000","3.2505","0.1630"
"23.5200","3.2856","0.1653"
"23.9400","3.3206","0.1677"
"24.3600","3.3556","0.1692"
"24.7800","3.3905","0.1712"
"25.2000","3.4254","0.1731"
"25.6200","3.4605","0.1758"
"26.0400","3.4956","0.1779"
"26.4600","3.5306","0.1801"
"26.8800","3.5655","0.1818"
"27.3000","3.6005","0.1838"
"27.7200","3.6355","0.1859"
"28.1400","3.6705","0.1880"
"28.5600","3.7054","0.1905"
"28.9800","3.7404","0.1923"
"29.4000","3.7754","0.1941"
"29.8200","3.8105","0.1961"
"30.2400","3.8455","0.1979"
"30.6600","3.8806","0.1998"
"31.0800","3.9155","0.2014"
"31.5000","3.9506","0.2034"
"31.9200","3.9856","0.2057"
"32.3400","4.0206","0.2073"
"32.7600","4.0555","0.2096"
"33.1800","4.0905","0.2113"
"33.6000","4.1255","0.2129"
"34.0200","4.1604","0.2151"
"34.4400","4.1955","0.2171"
"34.8600","4.2304","0.2188"
"35.2800","4.2654","0.2203"
"35.7000","4.3004","0.2222"
"36.1200","4.3355","0.2237"
"36.5400","4.3705","0.2254"
"36.9600","4.4055","0.2269"
"37.3800","4.4406","0.2292"
"37.8000","4.4756","0.2304"
"38.2200","4.5107","0.2325"
"38.6400","4.5454","0.2345"
"39.0600","4.5805","0.2356"
"39.4800","4.6155","0.2371"
"39.9000","4.6504","0.2389"
"40.3200","4.6855","0.2405"
"40.7400","4.7205","0.2427"
"41.1600","4.7555","0.2439"
"41.5800","4.7905","0.2454"
"42.0000","4.8255","0.2471"
"42.4200","4.8604","0.2487"
"42.8400","4.8954","0.2509"
"43.2600","4.9305","0.2522"
"43.6800","4.9656","0.2537"
"44.1000","5.0006","0.2552"
"44.5200","5.0355","0.2569"
"44.9400","5.0706","0.2586"
"45.3600","5.1056","0.2599"
"45.7800","5.1405","0.2612"
"46.2000","5.1754","0.2627"
"46.6200","5.2106","0.2645"
"47.0400","5.2456","0.2664"
"47.4600","5.2806","0.2679"
"47.8800","5.3156","0.2691"
"48.3000","5.3505","0.2705"
"48.7200","5.3855","0.2722"
"49.1400","5.4204","0.2736"
"49.5600","5.4554","0.2752"
"49.9800","5.4904","0.2766"
"50.4000","5.5254","0.2781"
"50.8200","5.5605","0.2794"
"51.2400","5.5955","0.2812"
"51.6600","5.6306","0.2823"
"52.0800","5.6655","0.2838"
"52.5000","5.7006","0.2850"
"52.9200","5.7356","0.2868"
"53.3400","5.7706","0.2883"
"53.7600","5.8056","0.2897"
"54.1800","5.8405","0.2907"
"54.6000","5.8755","0.2920"
"55.0200","5.9104","0.2933"
"55.4400","5.9455","0.2948"
"55.8600","5.9804","0.2959"
"56.2800","6.0154","0.2971"
"56.7000","6.0504","0.2986"
"57.1200","6.0855","0.2999"
"57.5400","6.1205","0.3011"
"57.9600","6.1555","0.3022"
"58.3800","6.1906","0.3031"
"58.8000","6.2256","0.3041"
"59.2200","6.2607","0.3059"
"59.6400","6.2955","0.3070"
"60.0600","6.3304","0.3079"
"60.4800","6.3654","0.3090"
"60.9000","6.4004","0.3102"
"61.3200","6.4355","0.3110"
"61.7400","6.4705","0.3122"
"62.1600","6.5056","0.3136"
"62.5800","6.5405","0.3145"
"63.0000","6.5756","0.3157"
"63.4200","6.6105","0.3168"
"63.8400","6.6454","0.3182"
"64.2600","6.6805","0.3188"
"64.6800","6.7155","0.3200"
"65.1000","6.7506","0.3212"
"65.5200","6.7855","0.3223"
"65.9400","6.8206","0.3235"
"66.3600","6.8555","0.3246"
"66.7800","6.8905","0.3253"
"67.2000","6.9254","0.3266"
"67.6200","6.9604","0.3276"
"68.0400","6.9956","0.3289"
"68.4600","7.0306","0.3292"
"68.8800","7.0656","0.3306"
"69.3000","7.1005","0.3312"
"69.7200","7.1355","0.3326"
"70.1400","7.1704","0.3338"
"70.5600","7.2054","0.3347"
"70.9800","7.2404","0.3354"
"71.4000","7.2754","0.3361"
"71.8200","7.3104","0.3375"
"72.2400","7.3454","0.3385"
"72.6600","7.3806","0.3391"
"73.0800","7.4156","0.3402"
"73.5000","7.4506","0.3409"
"73.9200","7.4856","0.3417"
"74.3400","7.5206","0.3430"
"74.7600","7.5556","0.3439"
"75.1800","7.5905","0.3446"
"75.6000","7.6255","0.3455"
"76.0200","7.6604","0.3463"
"76.4400","7.6955","0.3473"
"76.8600","7.7304","0.3481"
"77.2800","7.7654","0.3490"
"77.7000","7.8004","0.3498"
"78.1200","7.8355","0.3504"
"78.5400","7.8705","0.3511"
"78.9600","7.9055","0.3521"
"79.3800","7.9406","0.3530"
"79.8000","7.9756","0.3536"
"80.2200","8.0107","0.3547"
"80.6400","8.0456","0.3555"
"81.0600","8.0805","0.3560"
"81.4800","8.1154","0.3566"
"81.9000","8.1504","0.3576"
"82.3200","8.1855","0.3580"
"82.7400","8.2205","0.3590"
"83.1600","8.2555","0.3596"
"83.5800","8.2904","0.3605"
"84.0000","8.3255","0.3612"
"84.4200","8.3605","0.3621"
"84.8400","8.3955","0.3626"
"85.2600","8.4304","0.3633"
"85.6800","8.4655","0.3639"
"86.1000","8.5006","0.3649"
"86.5200","8.5356","0.3658"
"86.9400","8.5706","0.3661"
"87.3600","8.6054","0.3666"
"87.7800","8.6405","0.3676"
"88.2000","8.6754","0.3680"
"88.6200","8.7105","0.3688"
"89.0400","8.7456","0.3696"
"89.4600","8.7806","0.3698"
"89.8800","8.8156","0.3704"
"90.3000","8.8506","0.3712"
"90.7200","8.8856","0.3721"
"91.1400","8.9204","0.3724"
"91.5600","8.9554","0.3733"
"91.9800","8.9904","0.3735"
"92.4000","9.0254","0.3740"
"92.8200","9.0605","0.3746"
"93.2400","9.0955","0.3749"
"93.6600","9.1306","0.3760"
"94.0800","9.1656","0.3753"
"94.5000","9.2006","0.3758"
"94.9200","9.2356","0.3762"
"95.3400","9.2706","0.3772"
"95.7600","9.3056","0.3774"
"96.1800","9.3406","0.3779"
"96.6000","9.3755","0.3782"
"97.0200","9.4104","0.3788"
"97.4400","9.4455","0.3792"
"97.8600","9.4804","0.3801"
"98.2800","9.5154","0.3802"
"98.7000","9.5503","0.3809"
"99.1200","9.5854","0.3814"
"99.5400","9.6205","0.3815"
"99.9600","9.6556","0.3823"
"100.3800","9.6906","0.3826"
"100.8000","9.7256","0.3830"
"101.2200","9.7607","0.3834"
"101.6400","9.7956","0.3835"
"102.0600","9.8305","0.3831"
"102.4800","9.8654","0.3839"
"102.9000","9.9004","0.3841"
"103.3200","9.9354","0.3847"
"103.7400","9.9705","0.3850"
"104.1600","10.0056","0.3854"
"104.5800","10.0404","0.3860"
"105.0000","10.0755","0.3863"
"105.4200","10.1104","0.3868"
"105.8400","10.1454","0.3862"
"106.2600","10.1804","0.3831"
"106.6800","10.2155","0.3828"
"107.1000","10.2506","0.3810"
"107.5200","10.2856","0.3785"
"107.9400","10.3206","0.3778"
"108.3600","10.3555","0.3768"
"108.7800","10.3904","0.3764"
"109.2000","10.4254","0.3760"
"109.6200","10.4605","0.3761"
"110.0400","10.4956","0.3742"
"110.4600","10.5306","0.3723"
"110.8800","10.5656","0.3662"
"111.3000","10.6005","0.3643"
"111.7200","10.6356","0.3631"
"112.1400","10.6704","0.3614"
"112.5600","10.7054","0.3608"
"112.9800","10.7404","0.3599"
"113.4000","10.7754","0.3590"
"113.8200","10.8105","0.3586"
"114.2400","10.8455","0.3584"
"114.6600","10.8806","0.3580"
"115.0800","10.9155","0.3572"
"115.5000","10.9506","0.3571"
"115.9200","10.9856","0.3570"
"116.3400","11.0206","0.3558"
"116.7600","11.0556","0.3492"
"117.1800","11.0905","0.3456"
"117.6000","11.1255","0.3173"
"118.0200","11.1605","0.1308"
"118.4400","11.1955","0.1293"
"118.8600","11.2304","0.1277"
"119.2800","11.2654","0.1277"
"119.7000","11.3004","0.1273"
"120.1200","11.3354","0.1250"
"120.5400","11.3705","0.1223"
"120.8900","11.3997","0.1183"