File: flexural/ES100_Trevor_Flexural_Data_8_1.csv
Specimen text inputs : Specimen text input  1,,""

Results Table 1
,Specimen text input  1
"8","f45_f2"

Results Table 2

Time,Displacement,Force
(s),(mm),(kN)
"0.0000","1.3880","0.0202"
"0.3800","1.4184","0.0237"
"0.7600","1.4502","0.0261"
"1.1400","1.4818","0.0289"
"1.5200","1.5135","0.0311"
"1.9000","1.5452","0.0337"
"2.2800","1.5768","0.0364"
"2.6600","1.6085","0.0389"
"3.0400","1.6401","0.0419"
"3.4200","1.6718","0.0439"
"3.8000","1.7035","0.0470"
"4.1800","1.7352","0.0494"
"4.5600","1.7668","0.0522"
"4.9400","1.7986","0.0549"
"5.3200","1.8301","0.0572"
"5.7000","1.8618","0.0601"
"6.0800","1.8935","0.0628"
"6.4600","1.9251","0.0652"
"6.8400","1.9569","0.0682"
"7.2200","1.9885","0.0707"
"7.6000","2.0203","0.0731"
"7.9800","2.0518","0.0763"
"8.3600","2.0836","0.0788"
"8.7400","2.1151","0.0812"
"9.1200","2.1468","0.0838"
"9.5000","2.1785","0.0865"
"9.8800","2.2102","0.0888"
"10.2600","2.2419","0.0917"
"10.6400","2.2736","0.0941"
"11.0200","2.3053","0.0968"
"11.4000","2.3368","0.0991"
"11.7800","2.3686","0.1020"
"12.1600","2.4001","0.1044"
"12.5400","2.4318","0.1071"
"12.9200","2.4636","0.1094"
"13.3000","2.4953","0.1119"
"13.6800","2.5267","0.1147"
"14.0600","2.5586","0.1171"
"14.4400","2.5901","0.1198"
"14.8200","2.6218","0.1216"
"15.2000","2.6536","0.1242"
"15.5800","2.6851","0.1269"
"15.9600","2.7168","0.1292"
"16.3400","2.7486","0.1315"
"16.7200","2.7802","0.1339"
"17.1000","2.8118","0.1361"
"17.4800","2.8436","0.1383"
"17.8600","2.8751","0.1410"
"18.2400","2.9068","0.1434"
"18.6200","2.9386","0.1456"
"19.0000","2.9702","0.1476"
"19.3800","3.0019","0.1501"
"19.7600","3.0335","0.1521"
"20.1400","3.0652","0.1549"
"20.5200","3.0968","0.1570"
"20.9000","3.1286","0.1596"
"21.2800","3.1601","0.1621"
"21.6600","3.1918","0.1643"
"22.0400","3.2235","0.1666"
"22.4200","3.2552","0.1684"
"22.8000","3.2869","0.1704"
"23.1800","3.3186","0.1733"
"23.5600","3.3502","0.1749"
"23.9400","3.3819","0.1772"
"24.3200","3.4135","0.1795"
"24.7000","3.4452","0.1818"
"25.0800","3.4768","0.1835"
"25.4600","3.5086","0.1857"
"25.8400","3.5401","0.1877"
"26.2200","3.5719","0.1900"
"26.6000","3.6034","0.1919"
"26.9800","3.6352","0.1944"
"27.3600","3.6669","0.1963"
"27.7400","3.6985","0.1979"
"28.1200","3.7301","0.2001"
"28.5000","3.7620","0.2025"
"28.8800","3.7934","0.2046"
"29.2600","3.8252","0.2065"
"29.6400","3.8569","0.2079"
"30.0200","3.8886","0.2100"
"30.4000","3.9201","0.2122"
"30.7800","3.9519","0.2144"
"31.1600","3.9836","0.2162"
"31.5400","4.0151","0.2182"
"31.9200","4.0469","0.2197"
"32.3000","4.0785","0.2217"
"32.6800","4.1101","0.2237"
"33.0600","4.1418","0.2261"
"33.4400","4.1735","0.2275"
"33.8200","4.2051","0.2293"
"34.2000","4.2369","0.2311"
"34.5800","4.2686","0.2327"
"34.9600","4.3001","0.2353"
"35.3400","4.3320","0.2364"
"35.7200","4.3634","0.2384"
"36.1000","4.3951","0.2402"
"36.4800","4.4269","0.2419"
"36.8600","4.4586","0.2438"
"37.2400","4.4901","0.2458"
"37.6200","4.5219","0.2473"
"38.0000","4.5534","0.2492"
"38.3800","4.5851","0.2509"
"38.7600","4.6169","0.2523"
"39.1400","4.6485","0.2542"
"39.5200","4.6801","0.2560"
"39.9000","4.7118","0.2574"
"40.2800","4.7436","0.2596"
"40.6600","4.7751","0.2611"
"41.0400","4.8069","0.2627"
"41.4200","4.8385","0.2641"
"41.8000","4.8702","0.2659"
"42.1800","4.9018","0.2678"
"42.5600","4.9335","0.2689"
"42.9400","4.9652","0.2709"
"43.3200","4.9968","0.2724"
"43.7000","5.0286","0.2741"
"44.0800","5.0602","0.2759"
"44.4600","5.0919","0.2775"
"44.8400","5.1234","0.2788"
"45.2200","5.1553","0.2803"
"45.6000","5.1868","0.2819"
"45.9800","5.2185","0.2839"
"46.3600","5.2502","0.2853"
"46.7400","5.2819","0.2871"
"47.1200","5.3134","0.2885"
"47.5000","5.3452","0.2898"
"47.8800","5.3768","0.2917"
"48.2600","5.4084","0.2928"
"48.6400","5.4402","0.2943"
"49.0200","5.4719","0.2958"
"49.4000","5.5035","0.2972"
"49.7800","5.5352","0.2988"
"50.1600","5.5669","0.3001"
"50.5400","5.5984","0.3014"
"50.9200","5.6302","0.3034"
"51.3000","5.6618","0.3047"
"51.6800","5.6934","0.3062"
"52.0600","5.7253","0.3073"
"52.4400","5.7569","0.3080"
"52.8200","5.7884","0.3097"
"53.2000","5.8203","0.3112"
"53.5800","5.8519","0.3121"
"53.9600","5.8834","0.3136"
"54.3400","5.9152","0.3151"
"54.7200","5.9469","0.3157"
"55.1000","5.9784","0.3175"
"55.4800","6.0104","0.3187"
"55.8600","6.0418","0.3200"
"56.2400","6.0735","0.3211"
"56.6200","6.1052","0.3224"
"57.0000","6.1369","0.3237"
"57.3800","6.1684","0.3252"
"57.7600","6.2003","0.3261"
"58.1400","6.2318","0.3272"
"58.5200","6.2635","0.3290"
"58.9000","6.2952","0.3296"
"59.2800","6.3268","0.3304"
"59.6600","6.3585","0.3317"
"60.0400","6.3901","0.3329"
"60.4200","6.4219","0.3342"
"60.8000","6.4534","0.3352"
"61.1800","6.4853","0.3363"
"61.5600","6.5168","0.3376"
"61.9400","6.5486","0.3388"
"62.3200","6.5802","0.3396"
"62.7000","6.6118","0.3405"
"63.0800","6.6435","0.3419"
"63.4600","6.6751","0.3427"
"63.8400","6.7069","0.3439"
"64.2200","6.7385","0.3450"
"64.6000","6.7702","0.3458"
"64.9800","6.8017","0.3472"
"65.3600","6.8336","0.3478"
"65.7400","6.8651","0.3486"
"66.1200","6.8969","0.3499"
"66.5000","6.9286","0.3511"
"66.8800","6.9601","0.3522"
"67.2600","6.9918","0.3532"
"67.6400","7.0236","0.3540"
"68.0200","7.0552","0.3551"
"68.4000","7.0868","0.3561"
"68.7800","7.1186","0.3569"
"69.1600","7.1501","0.3580"
"69.5400","7.1818","0.3588"
"69.9200","7.2136","0.3599"
"70.3000","7.2453","0.3607"
"70.6800","7.2767","0.3616"
"71.0600","7.3086","0.3627"
"71.4400","7.3402","0.3636"
"71.8200","7.3717","0.3645"
"72.2000","7.4036","0.3659"
"72.5800","7.4351","0.3662"
"72.9600","7.4668","0.3673"
"73.3400","7.4986","0.3681"
"73.7200","7.5303","0.3695"
"74.1000","7.5618","0.3698"
"74.4800","7.5936","0.3707"
"74.8600","7.6251","0.3717"
"75.2400","7.6568","0.3727"
"75.6200","7.6886","0.3731"
"76.0000","7.7201","0.3743"
"76.3800","7.7519","0.3750"
"76.7600","7.7835","0.3761"
"77.1400","7.8152","0.3772"
"77.5200","7.8468","0.3776"
"77.9000","7.8786","0.3783"
"78.2800","7.9101","0.3791"
"78.6600","7.9418","0.3800"
"79.0400","7.9735","0.3809"
"79.4200","8.0052","0.3816"
"79.8000","8.0368","0.3822"
"80.1800","8.0685","0.3830"
"80.5600","8.1002","0.3841"
"80.9400","8.1319","0.3845"
"81.3200","8.1635","0.3852"
"81.7000","8.1952","0.3862"
"82.0800","8.2269","0.3870"
"82.4600","8.2585","0.3875"
"82.8400","8.2901","0.3884"
"83.2200","8.3219","0.3892"
"83.6000","8.3535","0.3896"
"83.9800","8.3852","0.3906"
"84.3600","8.4168","0.3915"
"84.7400","8.4486","0.3917"
"85.1200","8.4801","0.3928"
"85.5000","8.5120","0.3938"
"85.8800","8.5434","0.3941"
"86.2600","8.5752","0.3941"
"86.6400","8.6069","0.3954"
"87.0200","8.6385","0.3960"
"87.4000","8.6701","0.3964"
"87.7800","8.7019","0.3971"
"88.1600","8.7336","0.3981"
"88.5400","8.7651","0.3986"
"88.9200","8.7969","0.3987"
"89.3000","8.8285","0.3997"
"89.6800","8.8601","0.4003"
"90.0600","8.8919","0.4013"
"90.4400","8.9236","0.4020"
"90.8200","8.9551","0.4026"
"91.2000","8.9869","0.4031"
"91.5800","9.0185","0.4038"
"91.9600","9.0501","0.4039"
"92.3400","9.0819","0.4046"
"92.7200","9.1134","0.4055"
"93.1000","9.1451","0.4061"
"93.4800","9.1768","0.4067"
"93.8600","9.2086","0.4074"
"94.2400","9.2401","0.4075"
"94.6200","9.2719","0.4078"
"95.0000","9.3035","0.4088"
"95.3800","9.3351","0.4094"
"95.7600","9.3668","0.4097"
"96.1400","9.3985","0.4099"
"96.5200","9.4301","0.4105"
"96.9000","9.4618","0.4107"
"97.2800","9.4936","0.4118"
"97.6600","9.5251","0.4117"
"98.0400","9.5569","0.4124"
"98.4200","9.5884","0.4126"
"98.8000","9.6202","0.4136"
"99.1800","9.6518","0.4139"
"99.5600","9.6835","0.4145"
"99.9400","9.7152","0.4146"
"100.3200","9.7469","0.4152"
"100.7000","9.7785","0.4159"
"101.0800","9.8101","0.4161"
"101.4600","9.8418","0.4156"
"101.8400","9.8735","0.4162"
"102.2200","9.9052","0.4164"
"102.6000","9.9368","0.4157"
"102.9800","9.9685","0.4155"
"103.3600","10.0003","0.4150"
"103.7400","10.0318","0.4148"
"104.1200","10.0635","0.4144"
"104.5000","10.0952","0.4122"
"104.8800","10.1268","0.4117"
"105.2600","10.1584","0.4110"
"105.6400","10.1903","0.4107"
"106.0200","10.2218","0.4076"
"106.4000","10.2535","0.4059"
"106.7800","10.2853","0.4050"
"107.1600","10.3169","0.4042"
"107.5400","10.3484","0.4035"
"107.9200","10.3802","0.4031"
"108.3000","10.4119","0.4027"
"108.6800","10.4434","0.4028"
"109.0600","10.4753","0.4023"
"109.4400","10.5069","0.3995"
"109.8200","10.5384","0.3967"
"110.2000","10.5703","0.3946"
"110.5800","10.6018","0.3911"
"110.9600","10.6334","0.3876"
"111.3400","10.6652","0.3848"
"111.7200","10.6969","0.3820"
"112.1000","10.7284","0.3793"
"112.4800","10.7603","0.3711"
"112.8600","10.7918","0.3057"
"113.2400","10.8235","0.1380"
"113.6200","10.8552","0.1157"
"113.9260","10.8807","0.1115"