File: flexural/ES100_Trevor_Flexural_Data_5_1.csv
Specimen text inputs : Specimen text input  1,,""

Results Table 1
,Specimen text input  1
"5","f0_f1"

Results Table 2

Time,Displacement,Force
(s),(mm),(kN)
"0.0000","1.3307","0.0202"
"0.4200","1.3644","0.0242"
"0.8400","1.3994","0.0267"
"1.2600","1.4345","0.0300"
"1.6800","1.4695","0.0333"
"2.1000","1.5045","0.0361"
"2.5200","1.5394","0.0395"
"2.9400","1.5745","0.0424"
"3.3600","1.6094","0.0457"
"3.7800","1.6445","0.0484"
"4.2000","1.6795","0.0521"
"4.6200","1.7145","0.0551"
"5.0400","1.7496","0.0583"
"5.4600","1.7846","0.0615"
"5.8800","1.8196","0.0643"
"6.3000","1.8545","0.0678"
"6.7200","1.8895","0.0710"
"7.1400","1.9245","0.0740"
"7.5600","1.9595","0.0774"
"7.9800","1.9946","0.0805"
"8.4000","2.0296","0.0836"
"8.8200","2.0646","0.0863"
"9.2400","2.0995","0.0895"
"9.6600","2.1345","0.0927"
"10.0800","2.1694","0.0951"
"10.5000","2.2044","0.0985"
"10.9200","2.2394","0.1016"
"11.3400","2.2745","0.1042"
"11.7600","2.3096","0.1077"
"12.1800","2.3446","0.1104"
"12.6000","2.3796","0.1130"
"13.0200","2.4145","0.1158"
"13.4400","2.4495","0.1188"
"13.8600","2.4846","0.1218"
"14.2800","2.5196","0.1244"
"14.7000","2.5545","0.1271"
"15.1200","2.5894","0.1296"
"15.5400","2.6244","0.1324"
"15.9600","2.6594","0.1352"
"16.3800","2.6945","0.1380"
"16.8000","2.7294","0.1403"
"17.2200","2.7644","0.1433"
"17.6400","2.7994","0.1456"
"18.0600","2.8346","0.1482"
"18.4800","2.8696","0.1507"
"18.9000","2.9046","0.1531"
"19.3200","2.9396","0.1555"
"19.7400","2.9746","0.1580"
"20.1600","3.0096","0.1607"
"20.5800","3.0445","0.1633"
"21.0000","3.0795","0.1653"
"21.4200","3.1144","0.1679"
"21.8400","3.1495","0.1703"
"22.2600","3.1844","0.1733"
"22.6800","3.2195","0.1751"
"23.1000","3.2545","0.1773"
"23.5200","3.2894","0.1799"
"23.9400","3.3245","0.1824"
"24.3600","3.3595","0.1848"
"24.7800","3.3945","0.1865"
"25.2000","3.4294","0.1891"
"25.6200","3.4646","0.1911"
"26.0400","3.4996","0.1935"
"26.4600","3.5346","0.1956"
"26.8800","3.5696","0.1980"
"27.3000","3.6044","0.2001"
"27.7200","3.6395","0.2021"
"28.1400","3.6745","0.2041"
"28.5600","3.7096","0.2066"
"28.9800","3.7446","0.2085"
"29.4000","3.7795","0.2108"
"29.8200","3.8146","0.2126"
"30.2400","3.8495","0.2149"
"30.6600","3.8845","0.2166"
"31.0800","3.9194","0.2186"
"31.5000","3.9544","0.2207"
"31.9200","3.9894","0.2229"
"32.3400","4.0245","0.2245"
"32.7600","4.0595","0.2264"
"33.1800","4.0946","0.2277"
"33.6000","4.1296","0.2303"
"34.0200","4.1645","0.2319"
"34.4400","4.1996","0.2338"
"34.8600","4.2345","0.2359"
"35.2800","4.2696","0.2375"
"35.7000","4.3045","0.2397"
"36.1200","4.3394","0.2412"
"36.5400","4.3744","0.2432"
"36.9600","4.4094","0.2452"
"37.3800","4.4445","0.2466"
"37.8000","4.4794","0.2483"
"38.2200","4.5144","0.2501"
"38.6400","4.5494","0.2516"
"39.0600","4.5846","0.2535"
"39.4800","4.6196","0.2551"
"39.9000","4.6546","0.2565"
"40.3200","4.6896","0.2581"
"40.7400","4.7246","0.2600"
"41.1600","4.7596","0.2615"
"41.5800","4.7944","0.2636"
"42.0000","4.8295","0.2647"
"42.4200","4.8644","0.2665"
"42.8400","4.8994","0.2677"
"43.2600","4.9345","0.2698"
"43.6800","4.9696","0.2713"
"44.1000","5.0046","0.2726"
"44.5200","5.0394","0.2745"
"44.9400","5.0745","0.2760"
"45.3600","5.1095","0.2775"
"45.7800","5.1445","0.2787"
"46.2000","5.1795","0.2807"
"46.6200","5.2145","0.2820"
"47.0400","5.2496","0.2834"
"47.4600","5.2846","0.2853"
"47.8800","5.3196","0.2865"
"48.3000","5.3544","0.2881"
"48.7200","5.3894","0.2898"
"49.1400","5.4245","0.2913"
"49.5600","5.4596","0.2926"
"49.9800","5.4946","0.2941"
"50.4000","5.5295","0.2956"
"50.8200","5.5646","0.2973"
"51.2400","5.5995","0.2985"
"51.6600","5.6345","0.2998"
"52.0800","5.6694","0.3013"
"52.5000","5.7044","0.3023"
"52.9200","5.7394","0.3042"
"53.3400","5.7745","0.3050"
"53.7600","5.8096","0.3066"
"54.1800","5.8446","0.3079"
"54.6000","5.8796","0.3091"
"55.0200","5.9146","0.3106"
"55.4400","5.9496","0.3116"
"55.8600","5.9845","0.3129"
"56.2800","6.0196","0.3139"
"56.7000","6.0545","0.3153"
"57.1200","6.0894","0.3167"
"57.5400","6.1245","0.3175"
"57.9600","6.1594","0.3186"
"58.3800","6.1944","0.3202"
"58.8000","6.2294","0.3210"
"59.2200","6.2644","0.3225"
"59.6400","6.2994","0.3236"
"60.0600","6.3345","0.3247"
"60.4800","6.3696","0.3257"
"60.9000","6.4046","0.3268"
"61.3200","6.4396","0.3280"
"61.7400","6.4746","0.3289"
"62.1600","6.5096","0.3299"
"62.5800","6.5445","0.3314"
"63.0000","6.5795","0.3322"
"63.4200","6.6144","0.3336"
"63.8400","6.6494","0.3346"
"64.2600","6.6844","0.3356"
"64.6800","6.7195","0.3366"
"65.1000","6.7546","0.3373"
"65.5200","6.7894","0.3386"
"65.9400","6.8245","0.3396"
"66.3600","6.8595","0.3408"
"66.7800","6.8945","0.3413"
"67.2000","6.9295","0.3428"
"67.6200","6.9645","0.3436"
"68.0400","6.9996","0.3445"
"68.4600","7.0346","0.3459"
"68.8800","7.0696","0.3467"
"69.3000","7.1044","0.3477"
"69.7200","7.1395","0.3486"
"70.1400","7.1745","0.3496"
"70.5600","7.2096","0.3506"
"70.9800","7.2446","0.3514"
"71.4000","7.2796","0.3528"
"71.8200","7.3146","0.3534"
"72.2400","7.3495","0.3543"
"72.6600","7.3844","0.3554"
"73.0800","7.4194","0.3564"
"73.5000","7.4544","0.3572"
"73.9200","7.4894","0.3583"
"74.3400","7.5245","0.3592"
"74.7600","7.5596","0.3601"
"75.1800","7.5946","0.3608"
"75.6000","7.6296","0.3616"
"76.0200","7.6645","0.3624"
"76.4400","7.6996","0.3633"
"76.8600","7.7346","0.3639"
"77.2800","7.7696","0.3652"
"77.7000","7.8045","0.3658"
"78.1200","7.8395","0.3670"
"78.5400","7.8745","0.3677"
"78.9600","7.9095","0.3683"
"79.3800","7.9444","0.3692"
"79.8000","7.9794","0.3700"
"80.2200","8.0144","0.3708"
"80.6400","8.0494","0.3715"
"81.0600","8.0846","0.3728"
"81.4800","8.1196","0.3731"
"81.9000","8.1546","0.3739"
"82.3200","8.1896","0.3747"
"82.7400","8.2246","0.3752"
"83.1600","8.2596","0.3762"
"83.5800","8.2944","0.3766"
"84.0000","8.3295","0.3772"
"84.4200","8.3645","0.3779"
"84.8400","8.3994","0.3787"
"85.2600","8.4345","0.3797"
"85.6800","8.4695","0.3801"
"86.1000","8.5046","0.3810"
"86.5200","8.5395","0.3817"
"86.9400","8.5745","0.3825"
"87.3600","8.6094","0.3830"
"87.7800","8.6445","0.3838"
"88.2000","8.6795","0.3844"
"88.6200","8.7146","0.3854"
"89.0400","8.7496","0.3858"
"89.4600","8.7846","0.3866"
"89.8800","8.8196","0.3874"
"90.3000","8.8545","0.3876"
"90.7200","8.8895","0.3887"
"91.1400","8.9245","0.3889"
"91.5600","8.9596","0.3898"
"91.9800","8.9946","0.3905"
"92.4000","9.0296","0.3912"
"92.8200","9.0646","0.3919"
"93.2400","9.0995","0.3924"
"93.6600","9.1345","0.3934"
"94.0800","9.1694","0.3937"
"94.5000","9.2044","0.3942"
"94.9200","9.2394","0.3949"
"95.3400","9.2745","0.3957"
"95.7600","9.3096","0.3965"
"96.1800","9.3446","0.3965"
"96.6000","9.3796","0.3971"
"97.0200","9.4145","0.3980"
"97.4400","9.4496","0.3982"
"97.8600","9.4846","0.3990"
"98.2800","9.5196","0.3996"
"98.7000","9.5545","0.3999"
"99.1200","9.5894","0.4004"
"99.5400","9.6245","0.4015"
"99.9600","9.6595","0.4017"
"100.3800","9.6944","0.4021"
"100.8000","9.7294","0.4027"
"101.2200","9.7644","0.4035"
"101.6400","9.7994","0.4040"
"102.0600","9.8346","0.4048"
"102.4800","9.8696","0.4048"
"102.9000","9.9046","0.4058"
"103.3200","9.9396","0.4061"
"103.7400","9.9746","0.4067"
"104.1600","10.0096","0.4069"
"104.5800","10.0445","0.4076"
"105.0000","10.0794","0.4080"
"105.4200","10.1145","0.4082"
"105.8400","10.1494","0.4086"
"106.2600","10.1844","0.4096"
"106.6800","10.2195","0.4100"
"107.1000","10.2545","0.4102"
"107.5200","10.2895","0.4110"
"107.9400","10.3245","0.4114"
"108.3600","10.3595","0.4116"
"108.7800","10.3945","0.4121"
"109.2000","10.4295","0.4125"
"109.6200","10.4646","0.4126"
"110.0400","10.4996","0.4128"
"110.4600","10.5346","0.4132"
"110.8800","10.5696","0.4136"
"111.3000","10.6044","0.4139"
"111.7200","10.6395","0.4149"
"112.1400","10.6745","0.4145"
"112.5600","10.7096","0.4154"
"112.9800","10.7446","0.4156"
"113.4000","10.7796","0.4157"
"113.8200","10.8146","0.4159"
"114.2400","10.8494","0.4160"
"114.6600","10.8844","0.4161"
"115.0800","10.9194","0.4165"
"115.5000","10.9544","0.4169"
"115.9200","10.9894","0.4172"
"116.3400","11.0245","0.4174"
"116.7600","11.0596","0.4180"
"117.1800","11.0946","0.4177"
"117.6000","11.1296","0.4156"
"118.0200","11.1645","0.4151"
"118.4400","11.1996","0.4143"
"118.8600","11.2346","0.4129"
"119.2800","11.2696","0.1312"
"119.7000","11.3045","0.1271"
"120.1200","11.3394","0.1256"
"120.5400","11.3744","0.1249"
"120.9600","11.4095","0.1231"
"121.3800","11.4444","0.1194"
"121.8000","11.4794","0.1164"
"122.2200","11.5144","0.1159"
"122.6400","11.5494","0.1144"
"122.6740","11.5522","0.1142"