File: flexural/ES100_Trevor_Flexural_Data_14_1.csv
Specimen text inputs : Specimen text input  1,,""

Results Table 1
,Specimen text input  1
"14","bh_f2"

Results Table 2

Time,Displacement,Force
(s),(mm),(kN)
"0.0000","0.5840","0.0203"
"0.3400","0.6111","0.0247"
"0.6800","0.6395","0.0290"
"1.0200","0.6678","0.0336"
"1.3600","0.6962","0.0379"
"1.7000","0.7246","0.0424"
"2.0400","0.7528","0.0465"
"2.3800","0.7812","0.0508"
"2.7200","0.8096","0.0553"
"3.0600","0.8377","0.0591"
"3.4000","0.8661","0.0641"
"3.7400","0.8945","0.0682"
"4.0800","0.9229","0.0729"
"4.4200","0.9513","0.0772"
"4.7600","0.9794","0.0820"
"5.1000","1.0079","0.0859"
"5.4400","1.0362","0.0904"
"5.7800","1.0645","0.0951"
"6.1200","1.0929","0.0997"
"6.4600","1.1211","0.1038"
"6.8000","1.1494","0.1083"
"7.1400","1.1779","0.1130"
"7.4800","1.2061","0.1176"
"7.8200","1.2346","0.1212"
"8.1600","1.2629","0.1260"
"8.5000","1.2911","0.1301"
"8.8400","1.3196","0.1340"
"9.1800","1.3478","0.1387"
"9.5200","1.3762","0.1429"
"9.8600","1.4046","0.1471"
"10.2000","1.4329","0.1519"
"10.5400","1.4611","0.1560"
"10.8800","1.4894","0.1601"
"11.2200","1.5178","0.1649"
"11.5600","1.5463","0.1687"
"11.9000","1.5745","0.1732"
"12.2400","1.6028","0.1774"
"12.5800","1.6312","0.1814"
"12.9200","1.6594","0.1857"
"13.2600","1.6878","0.1898"
"13.6000","1.7162","0.1940"
"13.9400","1.7446","0.1982"
"14.2800","1.7729","0.2027"
"14.6200","1.8011","0.2063"
"14.9600","1.8295","0.2108"
"15.3000","1.8578","0.2148"
"15.6400","1.8862","0.2187"
"15.9800","1.9145","0.2230"
"16.3200","1.9428","0.2274"
"16.6600","1.9712","0.2308"
"17.0000","1.9996","0.2353"
"17.3400","2.0278","0.2396"
"17.6800","2.0562","0.2432"
"18.0200","2.0846","0.2473"
"18.3600","2.1128","0.2511"
"18.7000","2.1413","0.2551"
"19.0400","2.1694","0.2591"
"19.3800","2.1979","0.2632"
"19.7200","2.2262","0.2671"
"20.0600","2.2546","0.2712"
"20.4000","2.2829","0.2751"
"20.7400","2.3111","0.2788"
"21.0800","2.3394","0.2829"
"21.4200","2.3679","0.2869"
"21.7600","2.3962","0.2902"
"22.1000","2.4245","0.2944"
"22.4400","2.4528","0.2982"
"22.7800","2.4811","0.3021"
"23.1200","2.5096","0.3061"
"23.4600","2.5378","0.3096"
"23.8000","2.5662","0.3133"
"24.1400","2.5946","0.3169"
"24.4800","2.6228","0.3210"
"24.8200","2.6511","0.3242"
"25.1600","2.6795","0.3283"
"25.5000","2.7079","0.3322"
"25.8400","2.7363","0.3354"
"26.1800","2.7644","0.3392"
"26.5200","2.7928","0.3425"
"26.8600","2.8213","0.3456"
"27.2000","2.8494","0.3493"
"27.5400","2.8779","0.3530"
"27.8800","2.9062","0.3563"
"28.2200","2.9344","0.3599"
"28.5600","2.9629","0.3634"
"28.9000","2.9911","0.3665"
"29.2400","3.0196","0.3702"
"29.5800","3.0479","0.3739"
"29.9200","3.0761","0.3767"
"30.2600","3.1044","0.3805"
"30.6000","3.1328","0.3840"
"30.9400","3.1611","0.3870"
"31.2800","3.1896","0.3905"
"31.6200","3.2178","0.3941"
"31.9600","3.2461","0.3968"
"32.3000","3.2745","0.4010"
"32.6400","3.3028","0.4042"
"32.9800","3.3312","0.4074"
"33.3200","3.3595","0.4103"
"33.6600","3.3879","0.4140"
"34.0000","3.4162","0.4172"
"34.3400","3.4444","0.4203"
"34.6800","3.4728","0.4238"
"35.0200","3.5013","0.4269"
"35.3600","3.5296","0.4297"
"35.7000","3.5579","0.4328"
"36.0400","3.5861","0.4364"
"36.3800","3.6144","0.4392"
"36.7200","3.6429","0.4423"
"37.0600","3.6713","0.4452"
"37.4000","3.6995","0.4483"
"37.7400","3.7278","0.4515"
"38.0800","3.7562","0.4548"
"38.4200","3.7844","0.4575"
"38.7600","3.8127","0.4605"
"39.1000","3.8412","0.4633"
"39.4400","3.8696","0.4666"
"39.7800","3.8979","0.4695"
"40.1200","3.9261","0.4724"
"40.4600","3.9544","0.4756"
"40.8000","3.9829","0.4785"
"41.1400","4.0113","0.4814"
"41.4800","4.0395","0.4844"
"41.8200","4.0678","0.4880"
"42.1600","4.0961","0.4903"
"42.5000","4.1245","0.4938"
"42.8400","4.1529","0.4968"
"43.1800","4.1811","0.4992"
"43.5200","4.2096","0.5027"
"43.8600","4.2378","0.5056"
"44.2000","4.2662","0.5081"
"44.5400","4.2946","0.5114"
"44.8800","4.3229","0.5141"
"45.2200","4.3512","0.5169"
"45.5600","4.3796","0.5198"
"45.9000","4.4077","0.5226"
"46.2400","4.4362","0.5253"
"46.5800","4.4645","0.5286"
"46.9200","4.4929","0.5311"
"47.2600","4.5213","0.5339"
"47.6000","4.5494","0.5367"
"47.9400","4.5778","0.5394"
"48.2800","4.6062","0.5421"
"48.6200","4.6344","0.5449"
"48.9600","4.6628","0.5478"
"49.3000","4.6912","0.5505"
"49.6400","4.7195","0.5532"
"49.9800","4.7479","0.5561"
"50.3200","4.7760","0.5586"
"50.6600","4.8046","0.5612"
"51.0000","4.8331","0.5640"
"51.3400","4.8611","0.5666"
"51.6800","4.8895","0.5691"
"52.0200","4.9178","0.5720"
"52.3600","4.9462","0.5743"
"52.7000","4.9746","0.5775"
"53.0400","5.0028","0.5798"
"53.3800","5.0312","0.5821"
"53.7200","5.0595","0.5850"
"54.0600","5.0878","0.5878"
"54.4000","5.1162","0.5905"
"54.7400","5.1446","0.5929"
"55.0800","5.1729","0.5959"
"55.4200","5.2013","0.5983"
"55.7600","5.2294","0.6012"
"56.1000","5.2579","0.6037"
"56.4400","5.2863","0.6068"
"56.7800","5.3145","0.6090"
"57.1200","5.3428","0.6120"
"57.4600","5.3711","0.6145"
"57.8000","5.3994","0.6174"
"58.1400","5.4278","0.6197"
"58.4800","5.4562","0.6107"
"58.8200","5.4845","0.6123"
"59.1600","5.5129","0.6104"
"59.5000","5.5411","0.6127"
"59.8400","5.5695","0.6151"
"60.1800","5.5978","0.6180"
"60.5200","5.6262","0.6204"
"60.8600","5.6546","0.6229"
"61.2000","5.6829","0.6259"
"61.5400","5.7111","0.6225"
"61.8800","5.7394","0.6212"
"62.2200","5.7678","0.6192"
"62.5600","5.7962","0.6194"
"62.9000","5.8245","0.6214"
"63.2400","5.8529","0.6238"
"63.5800","5.8812","0.6260"
"63.9200","5.9095","0.6286"
"64.2600","5.9378","0.6315"
"64.6000","5.9661","0.6338"
"64.9400","5.9946","0.6364"
"65.2800","6.0229","0.6386"
"65.6200","6.0511","0.6408"
"65.9600","6.0795","0.6390"
"66.3000","6.1078","0.6399"
"66.6400","6.1362","0.6415"
"66.9800","6.1645","0.6437"
"67.3200","6.1928","0.6463"
"67.6600","6.2211","0.6482"
"68.0000","6.2496","0.6508"
"68.3400","6.2778","0.6528"
"68.6800","6.3062","0.6548"
"69.0200","6.3346","0.6572"
"69.3600","6.3627","0.6594"
"69.7000","6.3913","0.6615"
"70.0400","6.4194","0.6640"
"70.3800","6.4479","0.6585"
"70.7200","6.4763","0.6575"
"71.0600","6.5046","0.6513"
"71.4000","6.5329","0.6518"
"71.7400","6.5611","0.6532"
"72.0800","6.5894","0.6551"
"72.4200","6.6179","0.6571"
"72.7600","6.6461","0.6588"
"73.1000","6.6745","0.6611"
"73.4400","6.7028","0.6631"
"73.7800","6.7311","0.6654"
"74.1200","6.7596","0.6673"
"74.4600","6.7877","0.6689"
"74.8000","6.8163","0.6711"
"75.1400","6.8446","0.6732"
"75.4800","6.8728","0.6752"
"75.8200","6.9011","0.6772"
"76.1600","6.9295","0.6791"
"76.5000","6.9579","0.6812"
"76.8400","6.9863","0.6833"
"77.1800","7.0144","0.6751"
"77.5200","7.0428","0.6762"
"77.8600","7.0712","0.6774"
"78.2000","7.0995","0.6797"
"78.5400","7.1279","0.6819"
"78.8800","7.1561","0.6747"
"79.2200","7.1844","0.6764"
"79.5600","7.2129","0.6783"
"79.9000","7.2411","0.6798"
"80.2400","7.2696","0.6815"
"80.5800","7.2979","0.6837"
"80.9200","7.3262","0.6854"
"81.2600","7.3544","0.6828"
"81.6000","7.3828","0.6768"
"81.9400","7.4111","0.6771"
"82.2800","7.4396","0.6787"
"82.6200","7.4678","0.6804"
"82.9600","7.4962","0.6815"
"83.3000","7.5245","0.6838"
"83.6400","7.5528","0.6853"
"83.9800","7.5812","0.6875"
"84.3200","7.6095","0.6891"
"84.6600","7.6379","0.6909"
"85.0000","7.6661","0.6926"
"85.3400","7.6945","0.6948"
"85.6800","7.7228","0.6964"
"86.0200","7.7512","0.6982"
"86.3600","7.7796","0.7001"
"86.7000","7.8079","0.7016"
"87.0400","7.8361","0.7030"
"87.3800","7.8644","0.7051"
"87.7200","7.8929","0.7064"
"88.0600","7.9211","0.7082"
"88.4000","7.9496","0.7096"
"88.7400","7.9778","0.7113"
"89.0800","8.0062","0.7118"
"89.4200","8.0345","0.7131"
"89.7600","8.0627","0.7144"
"90.1000","8.0912","0.7164"
"90.4400","8.1196","0.7163"
"90.7800","8.1479","0.7151"
"91.1200","8.1761","0.7165"
"91.4600","8.2044","0.7179"
"91.8000","8.2329","0.7193"
"92.1400","8.2614","0.7179"
"92.4800","8.2895","0.7186"
"92.8200","8.3179","0.7198"
"93.1600","8.3462","0.7165"
"93.5000","8.3744","0.7180"
"93.8400","8.4029","0.7177"
"94.1800","8.4311","0.7186"
"94.5200","8.4596","0.7194"
"94.8600","8.4879","0.7193"
"95.2000","8.5161","0.7197"
"95.5400","8.5444","0.7196"
"95.8800","8.5729","0.7188"
"96.2200","8.6012","0.7189"
"96.5600","8.6296","0.7190"
"96.9000","8.6577","0.7187"
"97.2400","8.6861","0.7172"
"97.5800","8.7146","0.7119"
"97.9200","8.7429","0.7069"
"98.2600","8.7712","0.6920"
"98.4300","8.7855","0.4070"